Time	y(t)
0.0000	1.000000
0.0010	1.000000
0.0020	0.999998
0.0030	0.999996
0.0040	0.999992
0.0050	0.999988
0.0060	0.999982
0.0070	0.999976
0.0080	0.999968
0.0090	0.999960
0.0100	0.999950
0.0110	0.999940
0.0120	0.999928
0.0130	0.999916
0.0140	0.999902
0.0150	0.999888
0.0160	0.999872
0.0170	0.999856
0.0180	0.999838
0.0190	0.999820
0.0200	0.999800
0.0210	0.999780
0.0220	0.999758
0.0230	0.999736
0.0240	0.999712
0.0250	0.999688
0.0260	0.999662
0.0270	0.999636
0.0280	0.999608
0.0290	0.999580
0.0300	0.999550
0.0310	0.999520
0.0320	0.999488
0.0330	0.999456
0.0340	0.999422
0.0350	0.999388
0.0360	0.999352
0.0370	0.999316
0.0380	0.999278
0.0390	0.999240
0.0400	0.999200
0.0410	0.999160
0.0420	0.999118
0.0430	0.999076
0.0440	0.999032
0.0450	0.998988
0.0460	0.998943
0.0470	0.998896
0.0480	0.998849
0.0490	0.998800
0.0500	0.998751
0.0510	0.998700
0.0520	0.998649
0.0530	0.998596
0.0540	0.998543
0.0550	0.998489
0.0560	0.998433
0.0570	0.998377
0.0580	0.998319
0.0590	0.998261
0.0600	0.998202
0.0610	0.998141
0.0620	0.998080
0.0630	0.998017
0.0640	0.997954
0.0650	0.997890
0.0660	0.997824
0.0670	0.997758
0.0680	0.997691
0.0690	0.997622
0.0700	0.997553
0.0710	0.997483
0.0720	0.997411
0.0730	0.997339
0.0740	0.997266
0.0750	0.997191
0.0760	0.997116
0.0770	0.997040
0.0780	0.996963
0.0790	0.996884
0.0800	0.996805
0.0810	0.996725
0.0820	0.996644
0.0830	0.996561
0.0840	0.996478
0.0850	0.996394
0.0860	0.996309
0.0870	0.996223
0.0880	0.996135
0.0890	0.996047
0.0900	0.995958
0.0910	0.995868
0.0920	0.995777
0.0930	0.995685
0.0940	0.995592
0.0950	0.995498
0.0960	0.995403
0.0970	0.995307
0.0980	0.995210
0.0990	0.995111
0.1000	0.995012
0.1010	0.994912
0.1020	0.994812
0.1030	0.994710
0.1040	0.994607
0.1050	0.994503
0.1060	0.994398
0.1070	0.994292
0.1080	0.994185
0.1090	0.994077
0.1100	0.993968
0.1110	0.993858
0.1120	0.993748
0.1130	0.993636
0.1140	0.993523
0.1150	0.993409
0.1160	0.993295
0.1170	0.993179
0.1180	0.993062
0.1190	0.992945
0.1200	0.992826
0.1210	0.992706
0.1220	0.992586
0.1230	0.992464
0.1240	0.992341
0.1250	0.992218
0.1260	0.992093
0.1270	0.991968
0.1280	0.991841
0.1290	0.991714
0.1300	0.991586
0.1310	0.991456
0.1320	0.991326
0.1330	0.991194
0.1340	0.991062
0.1350	0.990929
0.1360	0.990795
0.1370	0.990659
0.1380	0.990523
0.1390	0.990386
0.1400	0.990248
0.1410	0.990109
0.1420	0.989969
0.1430	0.989828
0.1440	0.989686
0.1450	0.989543
0.1460	0.989399
0.1470	0.989254
0.1480	0.989108
0.1490	0.988961
0.1500	0.988813
0.1510	0.988664
0.1520	0.988514
0.1530	0.988364
0.1540	0.988212
0.1550	0.988059
0.1560	0.987906
0.1570	0.987751
0.1580	0.987596
0.1590	0.987439
0.1600	0.987282
0.1610	0.987123
0.1620	0.986964
0.1630	0.986803
0.1640	0.986642
0.1650	0.986480
0.1660	0.986316
0.1670	0.986152
0.1680	0.985987
0.1690	0.985821
0.1700	0.985654
0.1710	0.985486
0.1720	0.985317
0.1730	0.985147
0.1740	0.984976
0.1750	0.984804
0.1760	0.984631
0.1770	0.984458
0.1780	0.984283
0.1790	0.984107
0.1800	0.983931
0.1810	0.983753
0.1820	0.983574
0.1830	0.983395
0.1840	0.983214
0.1850	0.983033
0.1860	0.982851
0.1870	0.982667
0.1880	0.982483
0.1890	0.982298
0.1900	0.982112
0.1910	0.981925
0.1920	0.981737
0.1930	0.981548
0.1940	0.981358
0.1950	0.981167
0.1960	0.980975
0.1970	0.980783
0.1980	0.980589
0.1990	0.980394
0.2000	0.980199
0.2010	0.980002
0.2020	0.979805
0.2030	0.979606
0.2040	0.979407
0.2050	0.979207
0.2060	0.979006
0.2070	0.978803
0.2080	0.978600
0.2090	0.978396
0.2100	0.978191
0.2110	0.977985
0.2120	0.977779
0.2130	0.977571
0.2140	0.977362
0.2150	0.977153
0.2160	0.976942
0.2170	0.976731
0.2180	0.976518
0.2190	0.976305
0.2200	0.976090
0.2210	0.975875
0.2220	0.975659
0.2230	0.975442
0.2240	0.975224
0.2250	0.975005
0.2260	0.974785
0.2270	0.974565
0.2280	0.974343
0.2290	0.974120
0.2300	0.973897
0.2310	0.973672
0.2320	0.973447
0.2330	0.973221
0.2340	0.972993
0.2350	0.972765
0.2360	0.972536
0.2370	0.972306
0.2380	0.972075
0.2390	0.971843
0.2400	0.971611
0.2410	0.971377
0.2420	0.971143
0.2430	0.970907
0.2440	0.970671
0.2450	0.970433
0.2460	0.970195
0.2470	0.969956
0.2480	0.969716
0.2490	0.969475
0.2500	0.969233
0.2510	0.968990
0.2520	0.968747
0.2530	0.968502
0.2540	0.968257
0.2550	0.968010
0.2560	0.967763
0.2570	0.967515
0.2580	0.967266
0.2590	0.967016
0.2600	0.966765
0.2610	0.966513
0.2620	0.966260
0.2630	0.966007
0.2640	0.965752
0.2650	0.965497
0.2660	0.965240
0.2670	0.964983
0.2680	0.964725
0.2690	0.964466
0.2700	0.964206
0.2710	0.963946
0.2720	0.963684
0.2730	0.963421
0.2740	0.963158
0.2750	0.962893
0.2760	0.962628
0.2770	0.962362
0.2780	0.962095
0.2790	0.961827
0.2800	0.961558
0.2810	0.961289
0.2820	0.961018
0.2830	0.960747
0.2840	0.960474
0.2850	0.960201
0.2860	0.959927
0.2870	0.959652
0.2880	0.959376
0.2890	0.959099
0.2900	0.958822
0.2910	0.958543
0.2920	0.958264
0.2930	0.957984
0.2940	0.957703
0.2950	0.957421
0.2960	0.957138
0.2970	0.956854
0.2980	0.956569
0.2990	0.956284
0.3000	0.955997
0.3010	0.955710
0.3020	0.955422
0.3030	0.955133
0.3040	0.954843
0.3050	0.954553
0.3060	0.954261
0.3070	0.953969
0.3080	0.953675
0.3090	0.953381
0.3100	0.953086
0.3110	0.952790
0.3120	0.952493
0.3130	0.952196
0.3140	0.951897
0.3150	0.951598
0.3160	0.951298
0.3170	0.950997
0.3180	0.950695
0.3190	0.950392
0.3200	0.950089
0.3210	0.949784
0.3220	0.949479
0.3230	0.949173
0.3240	0.948866
0.3250	0.948558
0.3260	0.948249
0.3270	0.947940
0.3280	0.947629
0.3290	0.947318
0.3300	0.947006
0.3310	0.946693
0.3320	0.946379
0.3330	0.946065
0.3340	0.945749
0.3350	0.945433
0.3360	0.945116
0.3370	0.944798
0.3380	0.944479
0.3390	0.944159
0.3400	0.943839
0.3410	0.943517
0.3420	0.943195
0.3430	0.942872
0.3440	0.942548
0.3450	0.942224
0.3460	0.941898
0.3470	0.941572
0.3480	0.941245
0.3490	0.940917
0.3500	0.940588
0.3510	0.940258
0.3520	0.939928
0.3530	0.939597
0.3540	0.939265
0.3550	0.938932
0.3560	0.938598
0.3570	0.938263
0.3580	0.937928
0.3590	0.937592
0.3600	0.937255
0.3610	0.936917
0.3620	0.936578
0.3630	0.936239
0.3640	0.935899
0.3650	0.935558
0.3660	0.935216
0.3670	0.934873
0.3680	0.934530
0.3690	0.934185
0.3700	0.933840
0.3710	0.933494
0.3720	0.933147
0.3730	0.932800
0.3740	0.932452
0.3750	0.932102
0.3760	0.931753
0.3770	0.931402
0.3780	0.931050
0.3790	0.930698
0.3800	0.930345
0.3810	0.929991
0.3820	0.929636
0.3830	0.929281
0.3840	0.928924
0.3850	0.928567
0.3860	0.928209
0.3870	0.927851
0.3880	0.927491
0.3890	0.927131
0.3900	0.926770
0.3910	0.926408
0.3920	0.926045
0.3930	0.925682
0.3940	0.925318
0.3950	0.924953
0.3960	0.924587
0.3970	0.924221
0.3980	0.923853
0.3990	0.923485
0.4000	0.923116
0.4010	0.922747
0.4020	0.922376
0.4030	0.922005
0.4040	0.921633
0.4050	0.921260
0.4060	0.920887
0.4070	0.920513
0.4080	0.920138
0.4090	0.919762
0.4100	0.919385
0.4110	0.919008
0.4120	0.918630
0.4130	0.918251
0.4140	0.917871
0.4150	0.917491
0.4160	0.917110
0.4170	0.916728
0.4180	0.916345
0.4190	0.915962
0.4200	0.915578
0.4210	0.915193
0.4220	0.914807
0.4230	0.914421
0.4240	0.914034
0.4250	0.913646
0.4260	0.913257
0.4270	0.912868
0.4280	0.912477
0.4290	0.912086
0.4300	0.911695
0.4310	0.911302
0.4320	0.910909
0.4330	0.910515
0.4340	0.910121
0.4350	0.909725
0.4360	0.909329
0.4370	0.908932
0.4380	0.908535
0.4390	0.908137
0.4400	0.907738
0.4410	0.907338
0.4420	0.906937
0.4430	0.906536
0.4440	0.906134
0.4450	0.905731
0.4460	0.905328
0.4470	0.904924
0.4480	0.904519
0.4490	0.904113
0.4500	0.903707
0.4510	0.903300
0.4520	0.902892
0.4530	0.902484
0.4540	0.902075
0.4550	0.901665
0.4560	0.901254
0.4570	0.900843
0.4580	0.900431
0.4590	0.900018
0.4600	0.899605
0.4610	0.899190
0.4620	0.898775
0.4630	0.898360
0.4640	0.897944
0.4650	0.897527
0.4660	0.897109
0.4670	0.896691
0.4680	0.896271
0.4690	0.895852
0.4700	0.895431
0.4710	0.895010
0.4720	0.894588
0.4730	0.894165
0.4740	0.893742
0.4750	0.893318
0.4760	0.892893
0.4770	0.892468
0.4780	0.892042
0.4790	0.891615
0.4800	0.891188
0.4810	0.890760
0.4820	0.890331
0.4830	0.889901
0.4840	0.889471
0.4850	0.889040
0.4860	0.888609
0.4870	0.888177
0.4880	0.887744
0.4890	0.887310
0.4900	0.886876
0.4910	0.886441
0.4920	0.886006
0.4930	0.885569
0.4940	0.885132
0.4950	0.884695
0.4960	0.884257
0.4970	0.883818
0.4980	0.883378
0.4990	0.882938
0.5000	0.882497
0.5010	0.882055
0.5020	0.881613
0.5030	0.881170
0.5040	0.880727
0.5050	0.880282
0.5060	0.879838
0.5070	0.879392
0.5080	0.878946
0.5090	0.878499
0.5100	0.878052
0.5110	0.877603
0.5120	0.877155
0.5130	0.876705
0.5140	0.876255
0.5150	0.875804
0.5160	0.875353
0.5170	0.874901
0.5180	0.874448
0.5190	0.873995
0.5200	0.873541
0.5210	0.873087
0.5220	0.872631
0.5230	0.872176
0.5240	0.871719
0.5250	0.871262
0.5260	0.870804
0.5270	0.870346
0.5280	0.869887
0.5290	0.869427
0.5300	0.868967
0.5310	0.868506
0.5320	0.868045
0.5330	0.867583
0.5340	0.867120
0.5350	0.866657
0.5360	0.866193
0.5370	0.865728
0.5380	0.865263
0.5390	0.864797
0.5400	0.864331
0.5410	0.863864
0.5420	0.863396
0.5430	0.862928
0.5440	0.862459
0.5450	0.861989
0.5460	0.861519
0.5470	0.861048
0.5480	0.860577
0.5490	0.860105
0.5500	0.859633
0.5510	0.859160
0.5520	0.858686
0.5530	0.858212
0.5540	0.857737
0.5550	0.857261
0.5560	0.856785
0.5570	0.856309
0.5580	0.855831
0.5590	0.855353
0.5600	0.854875
0.5610	0.854396
0.5620	0.853916
0.5630	0.853436
0.5640	0.852955
0.5650	0.852474
0.5660	0.851992
0.5670	0.851510
0.5680	0.851027
0.5690	0.850543
0.5700	0.850059
0.5710	0.849574
0.5720	0.849088
0.5730	0.848602
0.5740	0.848116
0.5750	0.847629
0.5760	0.847141
0.5770	0.846653
0.5780	0.846164
0.5790	0.845675
0.5800	0.845185
0.5810	0.844694
0.5820	0.844203
0.5830	0.843712
0.5840	0.843219
0.5850	0.842727
0.5860	0.842233
0.5870	0.841740
0.5880	0.841245
0.5890	0.840750
0.5900	0.840255
0.5910	0.839759
0.5920	0.839262
0.5930	0.838765
0.5940	0.838268
0.5950	0.837769
0.5960	0.837271
0.5970	0.836771
0.5980	0.836271
0.5990	0.835771
0.6000	0.835270
0.6010	0.834769
0.6020	0.834267
0.6030	0.833764
0.6040	0.833261
0.6050	0.832758
0.6060	0.832254
0.6070	0.831749
0.6080	0.831244
0.6090	0.830738
0.6100	0.830232
0.6110	0.829725
0.6120	0.829218
0.6130	0.828710
0.6140	0.828202
0.6150	0.827693
0.6160	0.827184
0.6170	0.826674
0.6180	0.826164
0.6190	0.825653
0.6200	0.825142
0.6210	0.824630
0.6220	0.824118
0.6230	0.823605
0.6240	0.823091
0.6250	0.822578
0.6260	0.822063
0.6270	0.821548
0.6280	0.821033
0.6290	0.820517
0.6300	0.820001
0.6310	0.819484
0.6320	0.818967
0.6330	0.818449
0.6340	0.817930
0.6350	0.817412
0.6360	0.816892
0.6370	0.816373
0.6380	0.815852
0.6390	0.815331
0.6400	0.814810
0.6410	0.814289
0.6420	0.813766
0.6430	0.813244
0.6440	0.812721
0.6450	0.812197
0.6460	0.811673
0.6470	0.811148
0.6480	0.810623
0.6490	0.810098
0.6500	0.809572
0.6510	0.809045
0.6520	0.808518
0.6530	0.807991
0.6540	0.807463
0.6550	0.806935
0.6560	0.806406
0.6570	0.805877
0.6580	0.805347
0.6590	0.804817
0.6600	0.804286
0.6610	0.803755
0.6620	0.803224
0.6630	0.802692
0.6640	0.802159
0.6650	0.801626
0.6660	0.801093
0.6670	0.800559
0.6680	0.800025
0.6690	0.799491
0.6700	0.798956
0.6710	0.798420
0.6720	0.797884
0.6730	0.797348
0.6740	0.796811
0.6750	0.796274
0.6760	0.795736
0.6770	0.795198
0.6780	0.794659
0.6790	0.794120
0.6800	0.793581
0.6810	0.793041
0.6820	0.792501
0.6830	0.791960
0.6840	0.791419
0.6850	0.790877
0.6860	0.790335
0.6870	0.789793
0.6880	0.789250
0.6890	0.788707
0.6900	0.788163
0.6910	0.787619
0.6920	0.787075
0.6930	0.786530
0.6940	0.785985
0.6950	0.785439
0.6960	0.784893
0.6970	0.784346
0.6980	0.783800
0.6990	0.783252
0.7000	0.782705
0.7010	0.782156
0.7020	0.781608
0.7030	0.781059
0.7040	0.780510
0.7050	0.779960
0.7060	0.779410
0.7070	0.778860
0.7080	0.778309
0.7090	0.777758
0.7100	0.777206
0.7110	0.776654
0.7120	0.776101
0.7130	0.775549
0.7140	0.774996
0.7150	0.774442
0.7160	0.773888
0.7170	0.773334
0.7180	0.772779
0.7190	0.772224
0.7200	0.771669
0.7210	0.771113
0.7220	0.770557
0.7230	0.770000
0.7240	0.769443
0.7250	0.768886
0.7260	0.768328
0.7270	0.767770
0.7280	0.767212
0.7290	0.766653
0.7300	0.766094
0.7310	0.765535
0.7320	0.764975
0.7330	0.764415
0.7340	0.763854
0.7350	0.763294
0.7360	0.762732
0.7370	0.762171
0.7380	0.761609
0.7390	0.761047
0.7400	0.760484
0.7410	0.759921
0.7420	0.759358
0.7430	0.758794
0.7440	0.758230
0.7450	0.757666
0.7460	0.757101
0.7470	0.756536
0.7480	0.755971
0.7490	0.755406
0.7500	0.754840
0.7510	0.754273
0.7520	0.753707
0.7530	0.753140
0.7540	0.752572
0.7550	0.752005
0.7560	0.751437
0.7570	0.750869
0.7580	0.750300
0.7590	0.749731
0.7600	0.749162
0.7610	0.748593
0.7620	0.748023
0.7630	0.747453
0.7640	0.746882
0.7650	0.746311
0.7660	0.745740
0.7670	0.745169
0.7680	0.744597
0.7690	0.744025
0.7700	0.743453
0.7710	0.742880
0.7720	0.742307
0.7730	0.741734
0.7740	0.741161
0.7750	0.740587
0.7760	0.740013
0.7770	0.739438
0.7780	0.738864
0.7790	0.738289
0.7800	0.737713
0.7810	0.737138
0.7820	0.736562
0.7830	0.735986
0.7840	0.735409
0.7850	0.734833
0.7860	0.734256
0.7870	0.733678
0.7880	0.733101
0.7890	0.732523
0.7900	0.731945
0.7910	0.731367
0.7920	0.730788
0.7930	0.730209
0.7940	0.729630
0.7950	0.729050
0.7960	0.728471
0.7970	0.727891
0.7980	0.727310
0.7990	0.726730
0.8000	0.726149
0.8010	0.725568
0.8020	0.724987
0.8030	0.724405
0.8040	0.723823
0.8050	0.723241
0.8060	0.722659
0.8070	0.722076
0.8080	0.721493
0.8090	0.720910
0.8100	0.720327
0.8110	0.719743
0.8120	0.719160
0.8130	0.718575
0.8140	0.717991
0.8150	0.717407
0.8160	0.716822
0.8170	0.716237
0.8180	0.715651
0.8190	0.715066
0.8200	0.714480
0.8210	0.713894
0.8220	0.713308
0.8230	0.712722
0.8240	0.712135
0.8250	0.711548
0.8260	0.710961
0.8270	0.710373
0.8280	0.709786
0.8290	0.709198
0.8300	0.708610
0.8310	0.708022
0.8320	0.707433
0.8330	0.706845
0.8340	0.706256
0.8350	0.705667
0.8360	0.705077
0.8370	0.704488
0.8380	0.703898
0.8390	0.703308
0.8400	0.702718
0.8410	0.702127
0.8420	0.701537
0.8430	0.700946
0.8440	0.700355
0.8450	0.699764
0.8460	0.699172
0.8470	0.698581
0.8480	0.697989
0.8490	0.697397
0.8500	0.696805
0.8510	0.696212
0.8520	0.695620
0.8530	0.695027
0.8540	0.694434
0.8550	0.693841
0.8560	0.693248
0.8570	0.692654
0.8580	0.692060
0.8590	0.691467
0.8600	0.690872
0.8610	0.690278
0.8620	0.689684
0.8630	0.689089
0.8640	0.688494
0.8650	0.687900
0.8660	0.687304
0.8670	0.686709
0.8680	0.686114
0.8690	0.685518
0.8700	0.684922
0.8710	0.684326
0.8720	0.683730
0.8730	0.683134
0.8740	0.682537
0.8750	0.681941
0.8760	0.681344
0.8770	0.680747
0.8780	0.680150
0.8790	0.679553
0.8800	0.678955
0.8810	0.678358
0.8820	0.677760
0.8830	0.677162
0.8840	0.676564
0.8850	0.675966
0.8860	0.675368
0.8870	0.674769
0.8880	0.674171
0.8890	0.673572
0.8900	0.672973
0.8910	0.672374
0.8920	0.671775
0.8930	0.671176
0.8940	0.670576
0.8950	0.669977
0.8960	0.669377
0.8970	0.668777
0.8980	0.668177
0.8990	0.667577
0.9000	0.666977
0.9010	0.666376
0.9020	0.665776
0.9030	0.665175
0.9040	0.664575
0.9050	0.663974
0.9060	0.663373
0.9070	0.662772
0.9080	0.662171
0.9090	0.661569
0.9100	0.660968
0.9110	0.660366
0.9120	0.659765
0.9130	0.659163
0.9140	0.658561
0.9150	0.657959
0.9160	0.657357
0.9170	0.656755
0.9180	0.656153
0.9190	0.655550
0.9200	0.654948
0.9210	0.654345
0.9220	0.653742
0.9230	0.653140
0.9240	0.652537
0.9250	0.651934
0.9260	0.651331
0.9270	0.650727
0.9280	0.650124
0.9290	0.649521
0.9300	0.648917
0.9310	0.648314
0.9320	0.647710
0.9330	0.647106
0.9340	0.646503
0.9350	0.645899
0.9360	0.645295
0.9370	0.644691
0.9380	0.644087
0.9390	0.643482
0.9400	0.642878
0.9410	0.642274
0.9420	0.641669
0.9430	0.641065
0.9440	0.640460
0.9450	0.639856
0.9460	0.639251
0.9470	0.638646
0.9480	0.638041
0.9490	0.637437
0.9500	0.636832
0.9510	0.636227
0.9520	0.635622
0.9530	0.635016
0.9540	0.634411
0.9550	0.633806
0.9560	0.633201
0.9570	0.632595
0.9580	0.631990
0.9590	0.631384
0.9600	0.630779
0.9610	0.630173
0.9620	0.629568
0.9630	0.628962
0.9640	0.628356
0.9650	0.627750
0.9660	0.627145
0.9670	0.626539
0.9680	0.625933
0.9690	0.625327
0.9700	0.624721
0.9710	0.624115
0.9720	0.623509
0.9730	0.622903
0.9740	0.622297
0.9750	0.621691
0.9760	0.621085
0.9770	0.620478
0.9780	0.619872
0.9790	0.619266
0.9800	0.618660
0.9810	0.618053
0.9820	0.617447
0.9830	0.616841
0.9840	0.616234
0.9850	0.615628
0.9860	0.615022
0.9870	0.614415
0.9880	0.613809
0.9890	0.613202
0.9900	0.612596
0.9910	0.611989
0.9920	0.611383
0.9930	0.610776
0.9940	0.610170
0.9950	0.609563
0.9960	0.608957
0.9970	0.608350
0.9980	0.607744
0.9990	0.607137
1.0000	0.606531
1.0010	0.605924
1.0020	0.605318
1.0030	0.604711
1.0040	0.604105
1.0050	0.603498
1.0060	0.602892
1.0070	0.602285
1.0080	0.601679
1.0090	0.601072
1.0100	0.600466
1.0110	0.599859
1.0120	0.599253
1.0130	0.598646
1.0140	0.598040
1.0150	0.597433
1.0160	0.596827
1.0170	0.596221
1.0180	0.595614
1.0190	0.595008
1.0200	0.594402
1.0210	0.593795
1.0220	0.593189
1.0230	0.592583
1.0240	0.591977
1.0250	0.591371
1.0260	0.590764
1.0270	0.590158
1.0280	0.589552
1.0290	0.588946
1.0300	0.588340
1.0310	0.587734
1.0320	0.587128
1.0330	0.586522
1.0340	0.585916
1.0350	0.585311
1.0360	0.584705
1.0370	0.584099
1.0380	0.583493
1.0390	0.582888
1.0400	0.582282
1.0410	0.581677
1.0420	0.581071
1.0430	0.580466
1.0440	0.579860
1.0450	0.579255
1.0460	0.578650
1.0470	0.578044
1.0480	0.577439
1.0490	0.576834
1.0500	0.576229
1.0510	0.575624
1.0520	0.575019
1.0530	0.574414
1.0540	0.573809
1.0550	0.573205
1.0560	0.572600
1.0570	0.571995
1.0580	0.571391
1.0590	0.570786
1.0600	0.570182
1.0610	0.569577
1.0620	0.568973
1.0630	0.568369
1.0640	0.567765
1.0650	0.567161
1.0660	0.566557
1.0670	0.565953
1.0680	0.565349
1.0690	0.564745
1.0700	0.564142
1.0710	0.563538
1.0720	0.562934
1.0730	0.562331
1.0740	0.561728
1.0750	0.561124
1.0760	0.560521
1.0770	0.559918
1.0780	0.559315
1.0790	0.558712
1.0800	0.558110
1.0810	0.557507
1.0820	0.556904
1.0830	0.556302
1.0840	0.555699
1.0850	0.555097
1.0860	0.554495
1.0870	0.553893
1.0880	0.553291
1.0890	0.552689
1.0900	0.552087
1.0910	0.551485
1.0920	0.550883
1.0930	0.550282
1.0940	0.549681
1.0950	0.549079
1.0960	0.548478
1.0970	0.547877
1.0980	0.547276
1.0990	0.546675
1.1000	0.546074
1.1010	0.545474
1.1020	0.544873
1.1030	0.544273
1.1040	0.543673
1.1050	0.543072
1.1060	0.542472
1.1070	0.541873
1.1080	0.541273
1.1090	0.540673
1.1100	0.540074
1.1110	0.539474
1.1120	0.538875
1.1130	0.538276
1.1140	0.537677
1.1150	0.537078
1.1160	0.536479
1.1170	0.535880
1.1180	0.535282
1.1190	0.534683
1.1200	0.534085
1.1210	0.533487
1.1220	0.532889
1.1230	0.532291
1.1240	0.531694
1.1250	0.531096
1.1260	0.530499
1.1270	0.529901
1.1280	0.529304
1.1290	0.528707
1.1300	0.528110
1.1310	0.527514
1.1320	0.526917
1.1330	0.526321
1.1340	0.525724
1.1350	0.525128
1.1360	0.524532
1.1370	0.523937
1.1380	0.523341
1.1390	0.522746
1.1400	0.522150
1.1410	0.521555
1.1420	0.520960
1.1430	0.520365
1.1440	0.519770
1.1450	0.519176
1.1460	0.518582
1.1470	0.517987
1.1480	0.517393
1.1490	0.516799
1.1500	0.516206
1.1510	0.515612
1.1520	0.515019
1.1530	0.514426
1.1540	0.513832
1.1550	0.513240
1.1560	0.512647
1.1570	0.512054
1.1580	0.511462
1.1590	0.510870
1.1600	0.510278
1.1610	0.509686
1.1620	0.509094
1.1630	0.508503
1.1640	0.507912
1.1650	0.507320
1.1660	0.506729
1.1670	0.506139
1.1680	0.505548
1.1690	0.504958
1.1700	0.504368
1.1710	0.503778
1.1720	0.503188
1.1730	0.502598
1.1740	0.502009
1.1750	0.501419
1.1760	0.500830
1.1770	0.500241
1.1780	0.499653
1.1790	0.499064
1.1800	0.498476
1.1810	0.497888
1.1820	0.497300
1.1830	0.496712
1.1840	0.496125
1.1850	0.495537
1.1860	0.494950
1.1870	0.494363
1.1880	0.493777
1.1890	0.493190
1.1900	0.492604
1.1910	0.492018
1.1920	0.491432
1.1930	0.490846
1.1940	0.490261
1.1950	0.489675
1.1960	0.489090
1.1970	0.488506
1.1980	0.487921
1.1990	0.487336
1.2000	0.486752
1.2010	0.486168
1.2020	0.485584
1.2030	0.485001
1.2040	0.484418
1.2050	0.483834
1.2060	0.483252
1.2070	0.482669
1.2080	0.482086
1.2090	0.481504
1.2100	0.480922
1.2110	0.480340
1.2120	0.479759
1.2130	0.479177
1.2140	0.478596
1.2150	0.478015
1.2160	0.477435
1.2170	0.476854
1.2180	0.476274
1.2190	0.475694
1.2200	0.475114
1.2210	0.474535
1.2220	0.473955
1.2230	0.473376
1.2240	0.472798
1.2250	0.472219
1.2260	0.471641
1.2270	0.471062
1.2280	0.470485
1.2290	0.469907
1.2300	0.469330
1.2310	0.468752
1.2320	0.468176
1.2330	0.467599
1.2340	0.467022
1.2350	0.466446
1.2360	0.465870
1.2370	0.465295
1.2380	0.464719
1.2390	0.464144
1.2400	0.463569
1.2410	0.462994
1.2420	0.462420
1.2430	0.461846
1.2440	0.461272
1.2450	0.460698
1.2460	0.460125
1.2470	0.459551
1.2480	0.458978
1.2490	0.458406
1.2500	0.457833
1.2510	0.457261
1.2520	0.456689
1.2530	0.456118
1.2540	0.455546
1.2550	0.454975
1.2560	0.454404
1.2570	0.453834
1.2580	0.453263
1.2590	0.452693
1.2600	0.452123
1.2610	0.451554
1.2620	0.450985
1.2630	0.450416
1.2640	0.449847
1.2650	0.449278
1.2660	0.448710
1.2670	0.448142
1.2680	0.447575
1.2690	0.447007
1.2700	0.446440
1.2710	0.445873
1.2720	0.445307
1.2730	0.444740
1.2740	0.444174
1.2750	0.443609
1.2760	0.443043
1.2770	0.442478
1.2780	0.441913
1.2790	0.441348
1.2800	0.440784
1.2810	0.440220
1.2820	0.439656
1.2830	0.439093
1.2840	0.438530
1.2850	0.437967
1.2860	0.437404
1.2870	0.436842
1.2880	0.436280
1.2890	0.435718
1.2900	0.435156
1.2910	0.434595
1.2920	0.434034
1.2930	0.433474
1.2940	0.432913
1.2950	0.432353
1.2960	0.431793
1.2970	0.431234
1.2980	0.430675
1.2990	0.430116
1.3000	0.429557
1.3010	0.428999
1.3020	0.428441
1.3030	0.427883
1.3040	0.427326
1.3050	0.426769
1.3060	0.426212
1.3070	0.425656
1.3080	0.425100
1.3090	0.424544
1.3100	0.423988
1.3110	0.423433
1.3120	0.422878
1.3130	0.422323
1.3140	0.421769
1.3150	0.421215
1.3160	0.420661
1.3170	0.420108
1.3180	0.419554
1.3190	0.419002
1.3200	0.418449
1.3210	0.417897
1.3220	0.417345
1.3230	0.416793
1.3240	0.416242
1.3250	0.415691
1.3260	0.415141
1.3270	0.414590
1.3280	0.414040
1.3290	0.413491
1.3300	0.412941
1.3310	0.412392
1.3320	0.411843
1.3330	0.411295
1.3340	0.410747
1.3350	0.410199
1.3360	0.409652
1.3370	0.409105
1.3380	0.408558
1.3390	0.408011
1.3400	0.407465
1.3410	0.406919
1.3420	0.406374
1.3430	0.405829
1.3440	0.405284
1.3450	0.404739
1.3460	0.404195
1.3470	0.403651
1.3480	0.403108
1.3490	0.402564
1.3500	0.402021
1.3510	0.401479
1.3520	0.400937
1.3530	0.400395
1.3540	0.399853
1.3550	0.399312
1.3560	0.398771
1.3570	0.398230
1.3580	0.397690
1.3590	0.397150
1.3600	0.396611
1.3610	0.396072
1.3620	0.395533
1.3630	0.394994
1.3640	0.394456
1.3650	0.393918
1.3660	0.393380
1.3670	0.392843
1.3680	0.392306
1.3690	0.391770
1.3700	0.391234
1.3710	0.390698
1.3720	0.390162
1.3730	0.389627
1.3740	0.389093
1.3750	0.388558
1.3760	0.388024
1.3770	0.387490
1.3780	0.386957
1.3790	0.386424
1.3800	0.385891
1.3810	0.385359
1.3820	0.384827
1.3830	0.384295
1.3840	0.383764
1.3850	0.383233
1.3860	0.382702
1.3870	0.382172
1.3880	0.381642
1.3890	0.381113
1.3900	0.380583
1.3910	0.380055
1.3920	0.379526
1.3930	0.378998
1.3940	0.378470
1.3950	0.377943
1.3960	0.377416
1.3970	0.376889
1.3980	0.376363
1.3990	0.375837
1.4000	0.375311
1.4010	0.374786
1.4020	0.374261
1.4030	0.373736
1.4040	0.373212
1.4050	0.372688
1.4060	0.372165
1.4070	0.371642
1.4080	0.371119
1.4090	0.370597
1.4100	0.370075
1.4110	0.369553
1.4120	0.369032
1.4130	0.368511
1.4140	0.367991
1.4150	0.367470
1.4160	0.366951
1.4170	0.366431
1.4180	0.365912
1.4190	0.365393
1.4200	0.364875
1.4210	0.364357
1.4220	0.363840
1.4230	0.363322
1.4240	0.362806
1.4250	0.362289
1.4260	0.361773
1.4270	0.361257
1.4280	0.360742
1.4290	0.360227
1.4300	0.359713
1.4310	0.359198
1.4320	0.358685
1.4330	0.358171
1.4340	0.357658
1.4350	0.357145
1.4360	0.356633
1.4370	0.356121
1.4380	0.355610
1.4390	0.355098
1.4400	0.354588
1.4410	0.354077
1.4420	0.353567
1.4430	0.353057
1.4440	0.352548
1.4450	0.352039
1.4460	0.351531
1.4470	0.351023
1.4480	0.350515
1.4490	0.350008
1.4500	0.349501
1.4510	0.348994
1.4520	0.348488
1.4530	0.347982
1.4540	0.347477
1.4550	0.346972
1.4560	0.346467
1.4570	0.345963
1.4580	0.345459
1.4590	0.344955
1.4600	0.344452
1.4610	0.343949
1.4620	0.343447
1.4630	0.342945
1.4640	0.342444
1.4650	0.341943
1.4660	0.341442
1.4670	0.340941
1.4680	0.340441
1.4690	0.339942
1.4700	0.339443
1.4710	0.338944
1.4720	0.338446
1.4730	0.337948
1.4740	0.337450
1.4750	0.336953
1.4760	0.336456
1.4770	0.335960
1.4780	0.335464
1.4790	0.334968
1.4800	0.334473
1.4810	0.333978
1.4820	0.333483
1.4830	0.332989
1.4840	0.332496
1.4850	0.332003
1.4860	0.331510
1.4870	0.331017
1.4880	0.330525
1.4890	0.330034
1.4900	0.329542
1.4910	0.329052
1.4920	0.328561
1.4930	0.328071
1.4940	0.327582
1.4950	0.327092
1.4960	0.326604
1.4970	0.326115
1.4980	0.325627
1.4990	0.325140
1.5000	0.324652
1.5010	0.324166
1.5020	0.323679
1.5030	0.323193
1.5040	0.322708
1.5050	0.322223
1.5060	0.321738
1.5070	0.321254
1.5080	0.320770
1.5090	0.320286
1.5100	0.319803
1.5110	0.319320
1.5120	0.318838
1.5130	0.318356
1.5140	0.317875
1.5150	0.317394
1.5160	0.316913
1.5170	0.316433
1.5180	0.315953
1.5190	0.315474
1.5200	0.314995
1.5210	0.314516
1.5220	0.314038
1.5230	0.313560
1.5240	0.313083
1.5250	0.312606
1.5260	0.312129
1.5270	0.311653
1.5280	0.311177
1.5290	0.310702
1.5300	0.310227
1.5310	0.309753
1.5320	0.309279
1.5330	0.308805
1.5340	0.308332
1.5350	0.307859
1.5360	0.307387
1.5370	0.306915
1.5380	0.306443
1.5390	0.305972
1.5400	0.305502
1.5410	0.305031
1.5420	0.304562
1.5430	0.304092
1.5440	0.303623
1.5450	0.303155
1.5460	0.302686
1.5470	0.302219
1.5480	0.301751
1.5490	0.301284
1.5500	0.300818
1.5510	0.300352
1.5520	0.299886
1.5530	0.299421
1.5540	0.298956
1.5550	0.298492
1.5560	0.298028
1.5570	0.297564
1.5580	0.297101
1.5590	0.296639
1.5600	0.296176
1.5610	0.295715
1.5620	0.295253
1.5630	0.294792
1.5640	0.294332
1.5650	0.293872
1.5660	0.293412
1.5670	0.292953
1.5680	0.292494
1.5690	0.292035
1.5700	0.291577
1.5710	0.291120
1.5720	0.290663
1.5730	0.290206
1.5740	0.289750
1.5750	0.289294
1.5760	0.288838
1.5770	0.288383
1.5780	0.287929
1.5790	0.287475
1.5800	0.287021
1.5810	0.286568
1.5820	0.286115
1.5830	0.285662
1.5840	0.285210
1.5850	0.284759
1.5860	0.284308
1.5870	0.283857
1.5880	0.283407
1.5890	0.282957
1.5900	0.282508
1.5910	0.282059
1.5920	0.281610
1.5930	0.281162
1.5940	0.280714
1.5950	0.280267
1.5960	0.279820
1.5970	0.279374
1.5980	0.278928
1.5990	0.278482
1.6000	0.278037
1.6010	0.277593
1.6020	0.277148
1.6030	0.276705
1.6040	0.276261
1.6050	0.275818
1.6060	0.275376
1.6070	0.274934
1.6080	0.274492
1.6090	0.274051
1.6100	0.273610
1.6110	0.273170
1.6120	0.272730
1.6130	0.272291
1.6140	0.271852
1.6150	0.271413
1.6160	0.270975
1.6170	0.270538
1.6180	0.270100
1.6190	0.269663
1.6200	0.269227
1.6210	0.268791
1.6220	0.268356
1.6230	0.267921
1.6240	0.267486
1.6250	0.267052
1.6260	0.266618
1.6270	0.266185
1.6280	0.265752
1.6290	0.265320
1.6300	0.264888
1.6310	0.264456
1.6320	0.264025
1.6330	0.263594
1.6340	0.263164
1.6350	0.262734
1.6360	0.262305
1.6370	0.261876
1.6380	0.261447
1.6390	0.261019
1.6400	0.260592
1.6410	0.260165
1.6420	0.259738
1.6430	0.259312
1.6440	0.258886
1.6450	0.258460
1.6460	0.258036
1.6470	0.257611
1.6480	0.257187
1.6490	0.256763
1.6500	0.256340
1.6510	0.255917
1.6520	0.255495
1.6530	0.255073
1.6540	0.254652
1.6550	0.254231
1.6560	0.253810
1.6570	0.253390
1.6580	0.252971
1.6590	0.252551
1.6600	0.252133
1.6610	0.251714
1.6620	0.251296
1.6630	0.250879
1.6640	0.250462
1.6650	0.250045
1.6660	0.249629
1.6670	0.249214
1.6680	0.248798
1.6690	0.248384
1.6700	0.247969
1.6710	0.247555
1.6720	0.247142
1.6730	0.246729
1.6740	0.246316
1.6750	0.245904
1.6760	0.245493
1.6770	0.245081
1.6780	0.244671
1.6790	0.244260
1.6800	0.243850
1.6810	0.243441
1.6820	0.243032
1.6830	0.242623
1.6840	0.242215
1.6850	0.241808
1.6860	0.241400
1.6870	0.240994
1.6880	0.240587
1.6890	0.240181
1.6900	0.239776
1.6910	0.239371
1.6920	0.238966
1.6930	0.238562
1.6940	0.238159
1.6950	0.237755
1.6960	0.237353
1.6970	0.236950
1.6980	0.236549
1.6990	0.236147
1.7000	0.235746
1.7010	0.235346
1.7020	0.234945
1.7030	0.234546
1.7040	0.234147
1.7050	0.233748
1.7060	0.233349
1.7070	0.232952
1.7080	0.232554
1.7090	0.232157
1.7100	0.231761
1.7110	0.231365
1.7120	0.230969
1.7130	0.230574
1.7140	0.230179
1.7150	0.229785
1.7160	0.229391
1.7170	0.228997
1.7180	0.228604
1.7190	0.228212
1.7200	0.227820
1.7210	0.227428
1.7220	0.227037
1.7230	0.226646
1.7240	0.226256
1.7250	0.225866
1.7260	0.225477
1.7270	0.225088
1.7280	0.224699
1.7290	0.224311
1.7300	0.223924
1.7310	0.223537
1.7320	0.223150
1.7330	0.222764
1.7340	0.222378
1.7350	0.221992
1.7360	0.221607
1.7370	0.221223
1.7380	0.220839
1.7390	0.220455
1.7400	0.220072
1.7410	0.219689
1.7420	0.219307
1.7430	0.218925
1.7440	0.218544
1.7450	0.218163
1.7460	0.217783
1.7470	0.217403
1.7480	0.217023
1.7490	0.216644
1.7500	0.216265
1.7510	0.215887
1.7520	0.215509
1.7530	0.215132
1.7540	0.214755
1.7550	0.214378
1.7560	0.214002
1.7570	0.213627
1.7580	0.213252
1.7590	0.212877
1.7600	0.212503
1.7610	0.212129
1.7620	0.211756
1.7630	0.211383
1.7640	0.211010
1.7650	0.210638
1.7660	0.210267
1.7670	0.209896
1.7680	0.209525
1.7690	0.209155
1.7700	0.208785
1.7710	0.208416
1.7720	0.208047
1.7730	0.207678
1.7740	0.207310
1.7750	0.206943
1.7760	0.206576
1.7770	0.206209
1.7780	0.205843
1.7790	0.205477
1.7800	0.205112
1.7810	0.204747
1.7820	0.204383
1.7830	0.204019
1.7840	0.203655
1.7850	0.203292
1.7860	0.202929
1.7870	0.202567
1.7880	0.202205
1.7890	0.201844
1.7900	0.201483
1.7910	0.201123
1.7920	0.200763
1.7930	0.200403
1.7940	0.200044
1.7950	0.199685
1.7960	0.199327
1.7970	0.198969
1.7980	0.198612
1.7990	0.198255
1.8000	0.197899
1.8010	0.197543
1.8020	0.197187
1.8030	0.196832
1.8040	0.196477
1.8050	0.196123
1.8060	0.195769
1.8070	0.195416
1.8080	0.195063
1.8090	0.194711
1.8100	0.194359
1.8110	0.194007
1.8120	0.193656
1.8130	0.193305
1.8140	0.192955
1.8150	0.192605
1.8160	0.192256
1.8170	0.191907
1.8180	0.191559
1.8190	0.191210
1.8200	0.190863
1.8210	0.190516
1.8220	0.190169
1.8230	0.189823
1.8240	0.189477
1.8250	0.189132
1.8260	0.188787
1.8270	0.188442
1.8280	0.188098
1.8290	0.187754
1.8300	0.187411
1.8310	0.187068
1.8320	0.186726
1.8330	0.186384
1.8340	0.186043
1.8350	0.185702
1.8360	0.185361
1.8370	0.185021
1.8380	0.184682
1.8390	0.184342
1.8400	0.184004
1.8410	0.183665
1.8420	0.183327
1.8430	0.182990
1.8440	0.182653
1.8450	0.182316
1.8460	0.181980
1.8470	0.181644
1.8480	0.181309
1.8490	0.180974
1.8500	0.180640
1.8510	0.180306
1.8520	0.179972
1.8530	0.179639
1.8540	0.179307
1.8550	0.178974
1.8560	0.178643
1.8570	0.178311
1.8580	0.177980
1.8590	0.177650
1.8600	0.177320
1.8610	0.176990
1.8620	0.176661
1.8630	0.176332
1.8640	0.176004
1.8650	0.175676
1.8660	0.175349
1.8670	0.175022
1.8680	0.174695
1.8690	0.174369
1.8700	0.174044
1.8710	0.173718
1.8720	0.173393
1.8730	0.173069
1.8740	0.172745
1.8750	0.172422
1.8760	0.172099
1.8770	0.171776
1.8780	0.171454
1.8790	0.171132
1.8800	0.170811
1.8810	0.170490
1.8820	0.170169
1.8830	0.169849
1.8840	0.169530
1.8850	0.169210
1.8860	0.168892
1.8870	0.168573
1.8880	0.168255
1.8890	0.167938
1.8900	0.167621
1.8910	0.167304
1.8920	0.166988
1.8930	0.166672
1.8940	0.166357
1.8950	0.166042
1.8960	0.165728
1.8970	0.165414
1.8980	0.165100
1.8990	0.164787
1.9000	0.164474
1.9010	0.164162
1.9020	0.163850
1.9030	0.163539
1.9040	0.163228
1.9050	0.162917
1.9060	0.162607
1.9070	0.162297
1.9080	0.161988
1.9090	0.161679
1.9100	0.161371
1.9110	0.161063
1.9120	0.160755
1.9130	0.160448
1.9140	0.160141
1.9150	0.159835
1.9160	0.159529
1.9170	0.159224
1.9180	0.158919
1.9190	0.158614
1.9200	0.158310
1.9210	0.158006
1.9220	0.157703
1.9230	0.157400
1.9240	0.157098
1.9250	0.156796
1.9260	0.156494
1.9270	0.156193
1.9280	0.155892
1.9290	0.155592
1.9300	0.155292
1.9310	0.154992
1.9320	0.154693
1.9330	0.154394
1.9340	0.154096
1.9350	0.153798
1.9360	0.153501
1.9370	0.153204
1.9380	0.152908
1.9390	0.152611
1.9400	0.152316
1.9410	0.152020
1.9420	0.151726
1.9430	0.151431
1.9440	0.151137
1.9450	0.150843
1.9460	0.150550
1.9470	0.150258
1.9480	0.149965
1.9490	0.149673
1.9500	0.149382
1.9510	0.149091
1.9520	0.148800
1.9530	0.148510
1.9540	0.148220
1.9550	0.147931
1.9560	0.147642
1.9570	0.147353
1.9580	0.147065
1.9590	0.146777
1.9600	0.146490
1.9610	0.146203
1.9620	0.145916
1.9630	0.145630
1.9640	0.145345
1.9650	0.145059
1.9660	0.144774
1.9670	0.144490
1.9680	0.144206
1.9690	0.143922
1.9700	0.143639
1.9710	0.143357
1.9720	0.143074
1.9730	0.142792
1.9740	0.142511
1.9750	0.142230
1.9760	0.141949
1.9770	0.141669
1.9780	0.141389
1.9790	0.141109
1.9800	0.140830
1.9810	0.140552
1.9820	0.140273
1.9830	0.139996
1.9840	0.139718
1.9850	0.139441
1.9860	0.139165
1.9870	0.138888
1.9880	0.138613
1.9890	0.138337
1.9900	0.138062
1.9910	0.137788
1.9920	0.137514
1.9930	0.137240
1.9940	0.136967
1.9950	0.136694
1.9960	0.136421
1.9970	0.136149
1.9980	0.135877
1.9990	0.135606
2.0000	0.135335
2.0010	0.135065
2.0020	0.134795
2.0030	0.134525
2.0040	0.134256
2.0050	0.133987
2.0060	0.133719
2.0070	0.133451
2.0080	0.133183
2.0090	0.132916
2.0100	0.132649
2.0110	0.132382
2.0120	0.132116
2.0130	0.131851
2.0140	0.131586
2.0150	0.131321
2.0160	0.131056
2.0170	0.130792
2.0180	0.130529
2.0190	0.130266
2.0200	0.130003
2.0210	0.129740
2.0220	0.129478
2.0230	0.129217
2.0240	0.128955
2.0250	0.128695
2.0260	0.128434
2.0270	0.128174
2.0280	0.127915
2.0290	0.127655
2.0300	0.127397
2.0310	0.127138
2.0320	0.126880
2.0330	0.126623
2.0340	0.126365
2.0350	0.126109
2.0360	0.125852
2.0370	0.125596
2.0380	0.125340
2.0390	0.125085
2.0400	0.124830
2.0410	0.124576
2.0420	0.124322
2.0430	0.124068
2.0440	0.123815
2.0450	0.123562
2.0460	0.123309
2.0470	0.123057
2.0480	0.122806
2.0490	0.122554
2.0500	0.122303
2.0510	0.122053
2.0520	0.121803
2.0530	0.121553
2.0540	0.121304
2.0550	0.121055
2.0560	0.120806
2.0570	0.120558
2.0580	0.120310
2.0590	0.120063
2.0600	0.119816
2.0610	0.119569
2.0620	0.119323
2.0630	0.119077
2.0640	0.118832
2.0650	0.118587
2.0660	0.118342
2.0670	0.118098
2.0680	0.117854
2.0690	0.117610
2.0700	0.117367
2.0710	0.117124
2.0720	0.116882
2.0730	0.116640
2.0740	0.116398
2.0750	0.116157
2.0760	0.115916
2.0770	0.115676
2.0780	0.115436
2.0790	0.115196
2.0800	0.114957
2.0810	0.114718
2.0820	0.114479
2.0830	0.114241
2.0840	0.114003
2.0850	0.113766
2.0860	0.113529
2.0870	0.113292
2.0880	0.113056
2.0890	0.112820
2.0900	0.112585
2.0910	0.112350
2.0920	0.112115
2.0930	0.111880
2.0940	0.111646
2.0950	0.111413
2.0960	0.111180
2.0970	0.110947
2.0980	0.110714
2.0990	0.110482
2.1000	0.110251
2.1010	0.110019
2.1020	0.109788
2.1030	0.109558
2.1040	0.109327
2.1050	0.109098
2.1060	0.108868
2.1070	0.108639
2.1080	0.108410
2.1090	0.108182
2.1100	0.107954
2.1110	0.107726
2.1120	0.107499
2.1130	0.107272
2.1140	0.107046
2.1150	0.106820
2.1160	0.106594
2.1170	0.106369
2.1180	0.106144
2.1190	0.105919
2.1200	0.105695
2.1210	0.105471
2.1220	0.105247
2.1230	0.105024
2.1240	0.104801
2.1250	0.104579
2.1260	0.104357
2.1270	0.104135
2.1280	0.103914
2.1290	0.103693
2.1300	0.103472
2.1310	0.103252
2.1320	0.103032
2.1330	0.102813
2.1340	0.102594
2.1350	0.102375
2.1360	0.102157
2.1370	0.101939
2.1380	0.101721
2.1390	0.101504
2.1400	0.101287
2.1410	0.101070
2.1420	0.100854
2.1430	0.100638
2.1440	0.100423
2.1450	0.100207
2.1460	0.099993
2.1470	0.099778
2.1480	0.099564
2.1490	0.099351
2.1500	0.099137
2.1510	0.098924
2.1520	0.098712
2.1530	0.098499
2.1540	0.098288
2.1550	0.098076
2.1560	0.097865
2.1570	0.097654
2.1580	0.097444
2.1590	0.097233
2.1600	0.097024
2.1610	0.096814
2.1620	0.096605
2.1630	0.096397
2.1640	0.096188
2.1650	0.095980
2.1660	0.095773
2.1670	0.095565
2.1680	0.095358
2.1690	0.095152
2.1700	0.094946
2.1710	0.094740
2.1720	0.094534
2.1730	0.094329
2.1740	0.094124
2.1750	0.093920
2.1760	0.093716
2.1770	0.093512
2.1780	0.093309
2.1790	0.093106
2.1800	0.092903
2.1810	0.092701
2.1820	0.092499
2.1830	0.092297
2.1840	0.092096
2.1850	0.091895
2.1860	0.091694
2.1870	0.091494
2.1880	0.091294
2.1890	0.091094
2.1900	0.090895
2.1910	0.090696
2.1920	0.090498
2.1930	0.090299
2.1940	0.090102
2.1950	0.089904
2.1960	0.089707
2.1970	0.089510
2.1980	0.089314
2.1990	0.089117
2.2000	0.088922
2.2010	0.088726
2.2020	0.088531
2.2030	0.088336
2.2040	0.088142
2.2050	0.087948
2.2060	0.087754
2.2070	0.087561
2.2080	0.087367
2.2090	0.087175
2.2100	0.086982
2.2110	0.086790
2.2120	0.086599
2.2130	0.086407
2.2140	0.086216
2.2150	0.086025
2.2160	0.085835
2.2170	0.085645
2.2180	0.085455
2.2190	0.085266
2.2200	0.085077
2.2210	0.084888
2.2220	0.084700
2.2230	0.084512
2.2240	0.084324
2.2250	0.084137
2.2260	0.083950
2.2270	0.083763
2.2280	0.083577
2.2290	0.083391
2.2300	0.083205
2.2310	0.083019
2.2320	0.082834
2.2330	0.082650
2.2340	0.082465
2.2350	0.082281
2.2360	0.082097
2.2370	0.081914
2.2380	0.081731
2.2390	0.081548
2.2400	0.081366
2.2410	0.081184
2.2420	0.081002
2.2430	0.080821
2.2440	0.080639
2.2450	0.080459
2.2460	0.080278
2.2470	0.080098
2.2480	0.079918
2.2490	0.079739
2.2500	0.079560
2.2510	0.079381
2.2520	0.079202
2.2530	0.079024
2.2540	0.078846
2.2550	0.078668
2.2560	0.078491
2.2570	0.078314
2.2580	0.078138
2.2590	0.077961
2.2600	0.077786
2.2610	0.077610
2.2620	0.077435
2.2630	0.077260
2.2640	0.077085
2.2650	0.076911
2.2660	0.076736
2.2670	0.076563
2.2680	0.076389
2.2690	0.076216
2.2700	0.076043
2.2710	0.075871
2.2720	0.075699
2.2730	0.075527
2.2740	0.075356
2.2750	0.075184
2.2760	0.075013
2.2770	0.074843
2.2780	0.074673
2.2790	0.074503
2.2800	0.074333
2.2810	0.074164
2.2820	0.073995
2.2830	0.073826
2.2840	0.073658
2.2850	0.073490
2.2860	0.073322
2.2870	0.073154
2.2880	0.072987
2.2890	0.072820
2.2900	0.072654
2.2910	0.072488
2.2920	0.072322
2.2930	0.072156
2.2940	0.071991
2.2950	0.071826
2.2960	0.071661
2.2970	0.071497
2.2980	0.071333
2.2990	0.071169
2.3000	0.071005
2.3010	0.070842
2.3020	0.070679
2.3030	0.070517
2.3040	0.070355
2.3050	0.070193
2.3060	0.070031
2.3070	0.069870
2.3080	0.069709
2.3090	0.069548
2.3100	0.069387
2.3110	0.069227
2.3120	0.069067
2.3130	0.068908
2.3140	0.068749
2.3150	0.068590
2.3160	0.068431
2.3170	0.068273
2.3180	0.068115
2.3190	0.067957
2.3200	0.067800
2.3210	0.067642
2.3220	0.067486
2.3230	0.067329
2.3240	0.067173
2.3250	0.067017
2.3260	0.066861
2.3270	0.066706
2.3280	0.066551
2.3290	0.066396
2.3300	0.066241
2.3310	0.066087
2.3320	0.065933
2.3330	0.065780
2.3340	0.065626
2.3350	0.065473
2.3360	0.065321
2.3370	0.065168
2.3380	0.065016
2.3390	0.064864
2.3400	0.064713
2.3410	0.064561
2.3420	0.064410
2.3430	0.064260
2.3440	0.064109
2.3450	0.063959
2.3460	0.063809
2.3470	0.063660
2.3480	0.063510
2.3490	0.063361
2.3500	0.063213
2.3510	0.063064
2.3520	0.062916
2.3530	0.062768
2.3540	0.062621
2.3550	0.062474
2.3560	0.062327
2.3570	0.062180
2.3580	0.062033
2.3590	0.061887
2.3600	0.061741
2.3610	0.061596
2.3620	0.061451
2.3630	0.061306
2.3640	0.061161
2.3650	0.061016
2.3660	0.060872
2.3670	0.060728
2.3680	0.060585
2.3690	0.060441
2.3700	0.060298
2.3710	0.060156
2.3720	0.060013
2.3730	0.059871
2.3740	0.059729
2.3750	0.059587
2.3760	0.059446
2.3770	0.059305
2.3780	0.059164
2.3790	0.059023
2.3800	0.058883
2.3810	0.058743
2.3820	0.058603
2.3830	0.058464
2.3840	0.058325
2.3850	0.058186
2.3860	0.058047
2.3870	0.057909
2.3880	0.057771
2.3890	0.057633
2.3900	0.057495
2.3910	0.057358
2.3920	0.057221
2.3930	0.057084
2.3940	0.056948
2.3950	0.056812
2.3960	0.056676
2.3970	0.056540
2.3980	0.056405
2.3990	0.056270
2.4000	0.056135
2.4010	0.056000
2.4020	0.055866
2.4030	0.055732
2.4040	0.055598
2.4050	0.055464
2.4060	0.055331
2.4070	0.055198
2.4080	0.055065
2.4090	0.054933
2.4100	0.054801
2.4110	0.054669
2.4120	0.054537
2.4130	0.054406
2.4140	0.054275
2.4150	0.054144
2.4160	0.054013
2.4170	0.053883
2.4180	0.053753
2.4190	0.053623
2.4200	0.053493
2.4210	0.053364
2.4220	0.053235
2.4230	0.053106
2.4240	0.052977
2.4250	0.052849
2.4260	0.052721
2.4270	0.052593
2.4280	0.052466
2.4290	0.052339
2.4300	0.052212
2.4310	0.052085
2.4320	0.051958
2.4330	0.051832
2.4340	0.051706
2.4350	0.051580
2.4360	0.051455
2.4370	0.051330
2.4380	0.051205
2.4390	0.051080
2.4400	0.050956
2.4410	0.050831
2.4420	0.050707
2.4430	0.050584
2.4440	0.050460
2.4450	0.050337
2.4460	0.050214
2.4470	0.050091
2.4480	0.049969
2.4490	0.049847
2.4500	0.049725
2.4510	0.049603
2.4520	0.049482
2.4530	0.049361
2.4540	0.049240
2.4550	0.049119
2.4560	0.048998
2.4570	0.048878
2.4580	0.048758
2.4590	0.048638
2.4600	0.048519
2.4610	0.048400
2.4620	0.048281
2.4630	0.048162
2.4640	0.048044
2.4650	0.047925
2.4660	0.047807
2.4670	0.047689
2.4680	0.047572
2.4690	0.047455
2.4700	0.047338
2.4710	0.047221
2.4720	0.047104
2.4730	0.046988
2.4740	0.046872
2.4750	0.046756
2.4760	0.046640
2.4770	0.046525
2.4780	0.046410
2.4790	0.046295
2.4800	0.046180
2.4810	0.046066
2.4820	0.045952
2.4830	0.045838
2.4840	0.045724
2.4850	0.045611
2.4860	0.045497
2.4870	0.045385
2.4880	0.045272
2.4890	0.045159
2.4900	0.045047
2.4910	0.044935
2.4920	0.044823
2.4930	0.044712
2.4940	0.044600
2.4950	0.044489
2.4960	0.044378
2.4970	0.044268
2.4980	0.044157
2.4990	0.044047
2.5000	0.043937
2.5010	0.043827
2.5020	0.043718
2.5030	0.043608
2.5040	0.043499
2.5050	0.043391
2.5060	0.043282
2.5070	0.043174
2.5080	0.043066
2.5090	0.042958
2.5100	0.042850
2.5110	0.042743
2.5120	0.042635
2.5130	0.042528
2.5140	0.042422
2.5150	0.042315
2.5160	0.042209
2.5170	0.042103
2.5180	0.041997
2.5190	0.041891
2.5200	0.041786
2.5210	0.041681
2.5220	0.041576
2.5230	0.041471
2.5240	0.041366
2.5250	0.041262
2.5260	0.041158
2.5270	0.041054
2.5280	0.040950
2.5290	0.040847
2.5300	0.040744
2.5310	0.040641
2.5320	0.040538
2.5330	0.040436
2.5340	0.040333
2.5350	0.040231
2.5360	0.040129
2.5370	0.040028
2.5380	0.039926
2.5390	0.039825
2.5400	0.039724
2.5410	0.039623
2.5420	0.039523
2.5430	0.039422
2.5440	0.039322
2.5450	0.039222
2.5460	0.039122
2.5470	0.039023
2.5480	0.038924
2.5490	0.038825
2.5500	0.038726
2.5510	0.038627
2.5520	0.038529
2.5530	0.038430
2.5540	0.038332
2.5550	0.038235
2.5560	0.038137
2.5570	0.038040
2.5580	0.037943
2.5590	0.037846
2.5600	0.037749
2.5610	0.037652
2.5620	0.037556
2.5630	0.037460
2.5640	0.037364
2.5650	0.037268
2.5660	0.037173
2.5670	0.037078
2.5680	0.036982
2.5690	0.036888
2.5700	0.036793
2.5710	0.036698
2.5720	0.036604
2.5730	0.036510
2.5740	0.036416
2.5750	0.036323
2.5760	0.036229
2.5770	0.036136
2.5780	0.036043
2.5790	0.035950
2.5800	0.035858
2.5810	0.035765
2.5820	0.035673
2.5830	0.035581
2.5840	0.035489
2.5850	0.035398
2.5860	0.035306
2.5870	0.035215
2.5880	0.035124
2.5890	0.035033
2.5900	0.034943
2.5910	0.034852
2.5920	0.034762
2.5930	0.034672
2.5940	0.034582
2.5950	0.034493
2.5960	0.034403
2.5970	0.034314
2.5980	0.034225
2.5990	0.034136
2.6000	0.034047
2.6010	0.033959
2.6020	0.033871
2.6030	0.033783
2.6040	0.033695
2.6050	0.033607
2.6060	0.033520
2.6070	0.033433
2.6080	0.033346
2.6090	0.033259
2.6100	0.033172
2.6110	0.033085
2.6120	0.032999
2.6130	0.032913
2.6140	0.032827
2.6150	0.032741
2.6160	0.032656
2.6170	0.032571
2.6180	0.032485
2.6190	0.032401
2.6200	0.032316
2.6210	0.032231
2.6220	0.032147
2.6230	0.032063
2.6240	0.031979
2.6250	0.031895
2.6260	0.031811
2.6270	0.031728
2.6280	0.031644
2.6290	0.031561
2.6300	0.031479
2.6310	0.031396
2.6320	0.031313
2.6330	0.031231
2.6340	0.031149
2.6350	0.031067
2.6360	0.030985
2.6370	0.030904
2.6380	0.030822
2.6390	0.030741
2.6400	0.030660
2.6410	0.030579
2.6420	0.030498
2.6430	0.030418
2.6440	0.030338
2.6450	0.030257
2.6460	0.030178
2.6470	0.030098
2.6480	0.030018
2.6490	0.029939
2.6500	0.029860
2.6510	0.029781
2.6520	0.029702
2.6530	0.029623
2.6540	0.029544
2.6550	0.029466
2.6560	0.029388
2.6570	0.029310
2.6580	0.029232
2.6590	0.029155
2.6600	0.029077
2.6610	0.029000
2.6620	0.028923
2.6630	0.028846
2.6640	0.028769
2.6650	0.028693
2.6660	0.028616
2.6670	0.028540
2.6680	0.028464
2.6690	0.028388
2.6700	0.028313
2.6710	0.028237
2.6720	0.028162
2.6730	0.028087
2.6740	0.028012
2.6750	0.027937
2.6760	0.027862
2.6770	0.027788
2.6780	0.027713
2.6790	0.027639
2.6800	0.027565
2.6810	0.027491
2.6820	0.027418
2.6830	0.027344
2.6840	0.027271
2.6850	0.027198
2.6860	0.027125
2.6870	0.027052
2.6880	0.026980
2.6890	0.026907
2.6900	0.026835
2.6910	0.026763
2.6920	0.026691
2.6930	0.026619
2.6940	0.026548
2.6950	0.026476
2.6960	0.026405
2.6970	0.026334
2.6980	0.026263
2.6990	0.026192
2.7000	0.026121
2.7010	0.026051
2.7020	0.025981
2.7030	0.025911
2.7040	0.025841
2.7050	0.025771
2.7060	0.025701
2.7070	0.025632
2.7080	0.025562
2.7090	0.025493
2.7100	0.025424
2.7110	0.025355
2.7120	0.025287
2.7130	0.025218
2.7140	0.025150
2.7150	0.025082
2.7160	0.025014
2.7170	0.024946
2.7180	0.024878
2.7190	0.024811
2.7200	0.024743
2.7210	0.024676
2.7220	0.024609
2.7230	0.024542
2.7240	0.024475
2.7250	0.024409
2.7260	0.024342
2.7270	0.024276
2.7280	0.024210
2.7290	0.024144
2.7300	0.024078
2.7310	0.024013
2.7320	0.023947
2.7330	0.023882
2.7340	0.023816
2.7350	0.023751
2.7360	0.023687
2.7370	0.023622
2.7380	0.023557
2.7390	0.023493
2.7400	0.023429
2.7410	0.023364
2.7420	0.023300
2.7430	0.023237
2.7440	0.023173
2.7450	0.023109
2.7460	0.023046
2.7470	0.022983
2.7480	0.022920
2.7490	0.022857
2.7500	0.022794
2.7510	0.022732
2.7520	0.022669
2.7530	0.022607
2.7540	0.022545
2.7550	0.022483
2.7560	0.022421
2.7570	0.022359
2.7580	0.022297
2.7590	0.022236
2.7600	0.022175
2.7610	0.022114
2.7620	0.022053
2.7630	0.021992
2.7640	0.021931
2.7650	0.021871
2.7660	0.021810
2.7670	0.021750
2.7680	0.021690
2.7690	0.021630
2.7700	0.021570
2.7710	0.021510
2.7720	0.021451
2.7730	0.021391
2.7740	0.021332
2.7750	0.021273
2.7760	0.021214
2.7770	0.021155
2.7780	0.021097
2.7790	0.021038
2.7800	0.020980
2.7810	0.020921
2.7820	0.020863
2.7830	0.020805
2.7840	0.020748
2.7850	0.020690
2.7860	0.020632
2.7870	0.020575
2.7880	0.020518
2.7890	0.020460
2.7900	0.020403
2.7910	0.020347
2.7920	0.020290
2.7930	0.020233
2.7940	0.020177
2.7950	0.020121
2.7960	0.020064
2.7970	0.020008
2.7980	0.019952
2.7990	0.019897
2.8000	0.019841
2.8010	0.019786
2.8020	0.019730
2.8030	0.019675
2.8040	0.019620
2.8050	0.019565
2.8060	0.019510
2.8070	0.019456
2.8080	0.019401
2.8090	0.019347
2.8100	0.019292
2.8110	0.019238
2.8120	0.019184
2.8130	0.019130
2.8140	0.019077
2.8150	0.019023
2.8160	0.018969
2.8170	0.018916
2.8180	0.018863
2.8190	0.018810
2.8200	0.018757
2.8210	0.018704
2.8220	0.018651
2.8230	0.018599
2.8240	0.018546
2.8250	0.018494
2.8260	0.018442
2.8270	0.018390
2.8280	0.018338
2.8290	0.018286
2.8300	0.018234
2.8310	0.018183
2.8320	0.018131
2.8330	0.018080
2.8340	0.018029
2.8350	0.017978
2.8360	0.017927
2.8370	0.017876
2.8380	0.017826
2.8390	0.017775
2.8400	0.017725
2.8410	0.017674
2.8420	0.017624
2.8430	0.017574
2.8440	0.017524
2.8450	0.017475
2.8460	0.017425
2.8470	0.017375
2.8480	0.017326
2.8490	0.017277
2.8500	0.017227
2.8510	0.017178
2.8520	0.017130
2.8530	0.017081
2.8540	0.017032
2.8550	0.016984
2.8560	0.016935
2.8570	0.016887
2.8580	0.016839
2.8590	0.016791
2.8600	0.016743
2.8610	0.016695
2.8620	0.016647
2.8630	0.016599
2.8640	0.016552
2.8650	0.016505
2.8660	0.016457
2.8670	0.016410
2.8680	0.016363
2.8690	0.016316
2.8700	0.016270
2.8710	0.016223
2.8720	0.016177
2.8730	0.016130
2.8740	0.016084
2.8750	0.016038
2.8760	0.015992
2.8770	0.015946
2.8780	0.015900
2.8790	0.015854
2.8800	0.015809
2.8810	0.015763
2.8820	0.015718
2.8830	0.015673
2.8840	0.015627
2.8850	0.015582
2.8860	0.015538
2.8870	0.015493
2.8880	0.015448
2.8890	0.015404
2.8900	0.015359
2.8910	0.015315
2.8920	0.015271
2.8930	0.015226
2.8940	0.015182
2.8950	0.015139
2.8960	0.015095
2.8970	0.015051
2.8980	0.015008
2.8990	0.014964
2.9000	0.014921
2.9010	0.014878
2.9020	0.014834
2.9030	0.014791
2.9040	0.014749
2.9050	0.014706
2.9060	0.014663
2.9070	0.014621
2.9080	0.014578
2.9090	0.014536
2.9100	0.014494
2.9110	0.014451
2.9120	0.014409
2.9130	0.014368
2.9140	0.014326
2.9150	0.014284
2.9160	0.014242
2.9170	0.014201
2.9180	0.014160
2.9190	0.014118
2.9200	0.014077
2.9210	0.014036
2.9220	0.013995
2.9230	0.013954
2.9240	0.013914
2.9250	0.013873
2.9260	0.013832
2.9270	0.013792
2.9280	0.013752
2.9290	0.013711
2.9300	0.013671
2.9310	0.013631
2.9320	0.013591
2.9330	0.013552
2.9340	0.013512
2.9350	0.013472
2.9360	0.013433
2.9370	0.013394
2.9380	0.013354
2.9390	0.013315
2.9400	0.013276
2.9410	0.013237
2.9420	0.013198
2.9430	0.013159
2.9440	0.013121
2.9450	0.013082
2.9460	0.013044
2.9470	0.013005
2.9480	0.012967
2.9490	0.012929
2.9500	0.012891
2.9510	0.012853
2.9520	0.012815
2.9530	0.012777
2.9540	0.012739
2.9550	0.012702
2.9560	0.012664
2.9570	0.012627
2.9580	0.012590
2.9590	0.012552
2.9600	0.012515
2.9610	0.012478
2.9620	0.012441
2.9630	0.012405
2.9640	0.012368
2.9650	0.012331
2.9660	0.012295
2.9670	0.012258
2.9680	0.012222
2.9690	0.012186
2.9700	0.012150
2.9710	0.012114
2.9720	0.012078
2.9730	0.012042
2.9740	0.012006
2.9750	0.011970
2.9760	0.011935
2.9770	0.011899
2.9780	0.011864
2.9790	0.011829
2.9800	0.011794
2.9810	0.011758
2.9820	0.011723
2.9830	0.011689
2.9840	0.011654
2.9850	0.011619
2.9860	0.011584
2.9870	0.011550
2.9880	0.011515
2.9890	0.011481
2.9900	0.011447
2.9910	0.011413
2.9920	0.011378
2.9930	0.011344
2.9940	0.011311
2.9950	0.011277
2.9960	0.011243
2.9970	0.011209
2.9980	0.011176
2.9990	0.011142
3.0000	0.011109
3.0010	0.011076
3.0020	0.011043
3.0030	0.011009
3.0040	0.010976
3.0050	0.010943
3.0060	0.010911
3.0070	0.010878
3.0080	0.010845
3.0090	0.010813
3.0100	0.010780
3.0110	0.010748
3.0120	0.010715
3.0130	0.010683
3.0140	0.010651
3.0150	0.010619
3.0160	0.010587
3.0170	0.010555
3.0180	0.010523
3.0190	0.010492
3.0200	0.010460
3.0210	0.010428
3.0220	0.010397
3.0230	0.010366
3.0240	0.010334
3.0250	0.010303
3.0260	0.010272
3.0270	0.010241
3.0280	0.010210
3.0290	0.010179
3.0300	0.010148
3.0310	0.010118
3.0320	0.010087
3.0330	0.010056
3.0340	0.010026
3.0350	0.009996
3.0360	0.009965
3.0370	0.009935
3.0380	0.009905
3.0390	0.009875
3.0400	0.009845
3.0410	0.009815
3.0420	0.009785
3.0430	0.009755
3.0440	0.009726
3.0450	0.009696
3.0460	0.009667
3.0470	0.009637
3.0480	0.009608
3.0490	0.009579
3.0500	0.009550
3.0510	0.009521
3.0520	0.009492
3.0530	0.009463
3.0540	0.009434
3.0550	0.009405
3.0560	0.009376
3.0570	0.009348
3.0580	0.009319
3.0590	0.009291
3.0600	0.009262
3.0610	0.009234
3.0620	0.009206
3.0630	0.009178
3.0640	0.009150
3.0650	0.009122
3.0660	0.009094
3.0670	0.009066
3.0680	0.009038
3.0690	0.009010
3.0700	0.008983
3.0710	0.008955
3.0720	0.008928
3.0730	0.008900
3.0740	0.008873
3.0750	0.008846
3.0760	0.008819
3.0770	0.008792
3.0780	0.008765
3.0790	0.008738
3.0800	0.008711
3.0810	0.008684
3.0820	0.008657
3.0830	0.008631
3.0840	0.008604
3.0850	0.008578
3.0860	0.008551
3.0870	0.008525
3.0880	0.008498
3.0890	0.008472
3.0900	0.008446
3.0910	0.008420
3.0920	0.008394
3.0930	0.008368
3.0940	0.008342
3.0950	0.008317
3.0960	0.008291
3.0970	0.008265
3.0980	0.008240
3.0990	0.008214
3.1000	0.008189
3.1010	0.008163
3.1020	0.008138
3.1030	0.008113
3.1040	0.008088
3.1050	0.008063
3.1060	0.008038
3.1070	0.008013
3.1080	0.007988
3.1090	0.007963
3.1100	0.007938
3.1110	0.007914
3.1120	0.007889
3.1130	0.007865
3.1140	0.007840
3.1150	0.007816
3.1160	0.007791
3.1170	0.007767
3.1180	0.007743
3.1190	0.007719
3.1200	0.007695
3.1210	0.007671
3.1220	0.007647
3.1230	0.007623
3.1240	0.007599
3.1250	0.007576
3.1260	0.007552
3.1270	0.007528
3.1280	0.007505
3.1290	0.007482
3.1300	0.007458
3.1310	0.007435
3.1320	0.007412
3.1330	0.007388
3.1340	0.007365
3.1350	0.007342
3.1360	0.007319
3.1370	0.007296
3.1380	0.007273
3.1390	0.007251
3.1400	0.007228
3.1410	0.007205
3.1420	0.007183
3.1430	0.007160
3.1440	0.007138
3.1450	0.007115
3.1460	0.007093
3.1470	0.007071
3.1480	0.007048
3.1490	0.007026
3.1500	0.007004
3.1510	0.006982
3.1520	0.006960
3.1530	0.006938
3.1540	0.006916
3.1550	0.006895
3.1560	0.006873
3.1570	0.006851
3.1580	0.006830
3.1590	0.006808
3.1600	0.006787
3.1610	0.006765
3.1620	0.006744
3.1630	0.006723
3.1640	0.006701
3.1650	0.006680
3.1660	0.006659
3.1670	0.006638
3.1680	0.006617
3.1690	0.006596
3.1700	0.006575
3.1710	0.006554
3.1720	0.006534
3.1730	0.006513
3.1740	0.006492
3.1750	0.006472
3.1760	0.006451
3.1770	0.006431
3.1780	0.006410
3.1790	0.006390
3.1800	0.006370
3.1810	0.006349
3.1820	0.006329
3.1830	0.006309
3.1840	0.006289
3.1850	0.006269
3.1860	0.006249
3.1870	0.006229
3.1880	0.006210
3.1890	0.006190
3.1900	0.006170
3.1910	0.006150
3.1920	0.006131
3.1930	0.006111
3.1940	0.006092
3.1950	0.006072
3.1960	0.006053
3.1970	0.006034
3.1980	0.006014
3.1990	0.005995
3.2000	0.005976
3.2010	0.005957
3.2020	0.005938
3.2030	0.005919
3.2040	0.005900
3.2050	0.005881
3.2060	0.005862
3.2070	0.005844
3.2080	0.005825
3.2090	0.005806
3.2100	0.005788
3.2110	0.005769
3.2120	0.005750
3.2130	0.005732
3.2140	0.005714
3.2150	0.005695
3.2160	0.005677
3.2170	0.005659
3.2180	0.005641
3.2190	0.005622
3.2200	0.005604
3.2210	0.005586
3.2220	0.005568
3.2230	0.005551
3.2240	0.005533
3.2250	0.005515
3.2260	0.005497
3.2270	0.005479
3.2280	0.005462
3.2290	0.005444
3.2300	0.005427
3.2310	0.005409
3.2320	0.005392
3.2330	0.005374
3.2340	0.005357
3.2350	0.005340
3.2360	0.005322
3.2370	0.005305
3.2380	0.005288
3.2390	0.005271
3.2400	0.005254
3.2410	0.005237
3.2420	0.005220
3.2430	0.005203
3.2440	0.005186
3.2450	0.005169
3.2460	0.005153
3.2470	0.005136
3.2480	0.005119
3.2490	0.005103
3.2500	0.005086
3.2510	0.005070
3.2520	0.005053
3.2530	0.005037
3.2540	0.005020
3.2550	0.005004
3.2560	0.004988
3.2570	0.004972
3.2580	0.004955
3.2590	0.004939
3.2600	0.004923
3.2610	0.004907
3.2620	0.004891
3.2630	0.004875
3.2640	0.004859
3.2650	0.004844
3.2660	0.004828
3.2670	0.004812
3.2680	0.004796
3.2690	0.004781
3.2700	0.004765
3.2710	0.004749
3.2720	0.004734
3.2730	0.004718
3.2740	0.004703
3.2750	0.004688
3.2760	0.004672
3.2770	0.004657
3.2780	0.004642
3.2790	0.004627
3.2800	0.004612
3.2810	0.004596
3.2820	0.004581
3.2830	0.004566
3.2840	0.004551
3.2850	0.004536
3.2860	0.004522
3.2870	0.004507
3.2880	0.004492
3.2890	0.004477
3.2900	0.004462
3.2910	0.004448
3.2920	0.004433
3.2930	0.004419
3.2940	0.004404
3.2950	0.004390
3.2960	0.004375
3.2970	0.004361
3.2980	0.004346
3.2990	0.004332
3.3000	0.004318
3.3010	0.004304
3.3020	0.004289
3.3030	0.004275
3.3040	0.004261
3.3050	0.004247
3.3060	0.004233
3.3070	0.004219
3.3080	0.004205
3.3090	0.004191
3.3100	0.004177
3.3110	0.004164
3.3120	0.004150
3.3130	0.004136
3.3140	0.004122
3.3150	0.004109
3.3160	0.004095
3.3170	0.004082
3.3180	0.004068
3.3190	0.004055
3.3200	0.004041
3.3210	0.004028
3.3220	0.004015
3.3230	0.004001
3.3240	0.003988
3.3250	0.003975
3.3260	0.003961
3.3270	0.003948
3.3280	0.003935
3.3290	0.003922
3.3300	0.003909
3.3310	0.003896
3.3320	0.003883
3.3330	0.003870
3.3340	0.003857
3.3350	0.003844
3.3360	0.003832
3.3370	0.003819
3.3380	0.003806
3.3390	0.003794
3.3400	0.003781
3.3410	0.003768
3.3420	0.003756
3.3430	0.003743
3.3440	0.003731
3.3450	0.003718
3.3460	0.003706
3.3470	0.003693
3.3480	0.003681
3.3490	0.003669
3.3500	0.003656
3.3510	0.003644
3.3520	0.003632
3.3530	0.003620
3.3540	0.003608
3.3550	0.003596
3.3560	0.003584
3.3570	0.003572
3.3580	0.003560
3.3590	0.003548
3.3600	0.003536
3.3610	0.003524
3.3620	0.003512
3.3630	0.003500
3.3640	0.003489
3.3650	0.003477
3.3660	0.003465
3.3670	0.003454
3.3680	0.003442
3.3690	0.003430
3.3700	0.003419
3.3710	0.003407
3.3720	0.003396
3.3730	0.003384
3.3740	0.003373
3.3750	0.003362
3.3760	0.003350
3.3770	0.003339
3.3780	0.003328
3.3790	0.003317
3.3800	0.003305
3.3810	0.003294
3.3820	0.003283
3.3830	0.003272
3.3840	0.003261
3.3850	0.003250
3.3860	0.003239
3.3870	0.003228
3.3880	0.003217
3.3890	0.003206
3.3900	0.003195
3.3910	0.003185
3.3920	0.003174
3.3930	0.003163
3.3940	0.003152
3.3950	0.003142
3.3960	0.003131
3.3970	0.003120
3.3980	0.003110
3.3990	0.003099
3.4000	0.003089
3.4010	0.003078
3.4020	0.003068
3.4030	0.003057
3.4040	0.003047
3.4050	0.003037
3.4060	0.003026
3.4070	0.003016
3.4080	0.003006
3.4090	0.002996
3.4100	0.002985
3.4110	0.002975
3.4120	0.002965
3.4130	0.002955
3.4140	0.002945
3.4150	0.002935
3.4160	0.002925
3.4170	0.002915
3.4180	0.002905
3.4190	0.002895
3.4200	0.002885
3.4210	0.002875
3.4220	0.002865
3.4230	0.002856
3.4240	0.002846
3.4250	0.002836
3.4260	0.002826
3.4270	0.002817
3.4280	0.002807
3.4290	0.002798
3.4300	0.002788
3.4310	0.002778
3.4320	0.002769
3.4330	0.002759
3.4340	0.002750
3.4350	0.002741
3.4360	0.002731
3.4370	0.002722
3.4380	0.002712
3.4390	0.002703
3.4400	0.002694
3.4410	0.002685
3.4420	0.002675
3.4430	0.002666
3.4440	0.002657
3.4450	0.002648
3.4460	0.002639
3.4470	0.002630
3.4480	0.002621
3.4490	0.002612
3.4500	0.002603
3.4510	0.002594
3.4520	0.002585
3.4530	0.002576
3.4540	0.002567
3.4550	0.002558
3.4560	0.002549
3.4570	0.002540
3.4580	0.002532
3.4590	0.002523
3.4600	0.002514
3.4610	0.002506
3.4620	0.002497
3.4630	0.002488
3.4640	0.002480
3.4650	0.002471
3.4660	0.002463
3.4670	0.002454
3.4680	0.002445
3.4690	0.002437
3.4700	0.002429
3.4710	0.002420
3.4720	0.002412
3.4730	0.002403
3.4740	0.002395
3.4750	0.002387
3.4760	0.002378
3.4770	0.002370
3.4780	0.002362
3.4790	0.002354
3.4800	0.002346
3.4810	0.002337
3.4820	0.002329
3.4830	0.002321
3.4840	0.002313
3.4850	0.002305
3.4860	0.002297
3.4870	0.002289
3.4880	0.002281
3.4890	0.002273
3.4900	0.002265
3.4910	0.002257
3.4920	0.002250
3.4930	0.002242
3.4940	0.002234
3.4950	0.002226
3.4960	0.002218
3.4970	0.002211
3.4980	0.002203
3.4990	0.002195
3.5000	0.002187
3.5010	0.002180
3.5020	0.002172
3.5030	0.002165
3.5040	0.002157
3.5050	0.002150
3.5060	0.002142
3.5070	0.002134
3.5080	0.002127
3.5090	0.002120
3.5100	0.002112
3.5110	0.002105
3.5120	0.002097
3.5130	0.002090
3.5140	0.002083
3.5150	0.002075
3.5160	0.002068
3.5170	0.002061
3.5180	0.002054
3.5190	0.002046
3.5200	0.002039
3.5210	0.002032
3.5220	0.002025
3.5230	0.002018
3.5240	0.002011
3.5250	0.002004
3.5260	0.001997
3.5270	0.001990
3.5280	0.001983
3.5290	0.001976
3.5300	0.001969
3.5310	0.001962
3.5320	0.001955
3.5330	0.001948
3.5340	0.001941
3.5350	0.001934
3.5360	0.001927
3.5370	0.001920
3.5380	0.001914
3.5390	0.001907
3.5400	0.001900
3.5410	0.001893
3.5420	0.001887
3.5430	0.001880
3.5440	0.001873
3.5450	0.001867
3.5460	0.001860
3.5470	0.001854
3.5480	0.001847
3.5490	0.001841
3.5500	0.001834
3.5510	0.001828
3.5520	0.001821
3.5530	0.001815
3.5540	0.001808
3.5550	0.001802
3.5560	0.001795
3.5570	0.001789
3.5580	0.001783
3.5590	0.001776
3.5600	0.001770
3.5610	0.001764
3.5620	0.001757
3.5630	0.001751
3.5640	0.001745
3.5650	0.001739
3.5660	0.001733
3.5670	0.001726
3.5680	0.001720
3.5690	0.001714
3.5700	0.001708
3.5710	0.001702
3.5720	0.001696
3.5730	0.001690
3.5740	0.001684
3.5750	0.001678
3.5760	0.001672
3.5770	0.001666
3.5780	0.001660
3.5790	0.001654
3.5800	0.001648
3.5810	0.001642
3.5820	0.001636
3.5830	0.001630
3.5840	0.001625
3.5850	0.001619
3.5860	0.001613
3.5870	0.001607
3.5880	0.001601
3.5890	0.001596
3.5900	0.001590
3.5910	0.001584
3.5920	0.001579
3.5930	0.001573
3.5940	0.001567
3.5950	0.001562
3.5960	0.001556
3.5970	0.001550
3.5980	0.001545
3.5990	0.001539
3.6000	0.001534
3.6010	0.001528
3.6020	0.001523
3.6030	0.001517
3.6040	0.001512
3.6050	0.001506
3.6060	0.001501
3.6070	0.001496
3.6080	0.001490
3.6090	0.001485
3.6100	0.001480
3.6110	0.001474
3.6120	0.001469
3.6130	0.001464
3.6140	0.001458
3.6150	0.001453
3.6160	0.001448
3.6170	0.001443
3.6180	0.001437
3.6190	0.001432
3.6200	0.001427
3.6210	0.001422
3.6220	0.001417
3.6230	0.001412
3.6240	0.001406
3.6250	0.001401
3.6260	0.001396
3.6270	0.001391
3.6280	0.001386
3.6290	0.001381
3.6300	0.001376
3.6310	0.001371
3.6320	0.001366
3.6330	0.001361
3.6340	0.001356
3.6350	0.001351
3.6360	0.001346
3.6370	0.001342
3.6380	0.001337
3.6390	0.001332
3.6400	0.001327
3.6410	0.001322
3.6420	0.001317
3.6430	0.001313
3.6440	0.001308
3.6450	0.001303
3.6460	0.001298
3.6470	0.001294
3.6480	0.001289
3.6490	0.001284
3.6500	0.001280
3.6510	0.001275
3.6520	0.001270
3.6530	0.001266
3.6540	0.001261
3.6550	0.001256
3.6560	0.001252
3.6570	0.001247
3.6580	0.001243
3.6590	0.001238
3.6600	0.001234
3.6610	0.001229
3.6620	0.001225
3.6630	0.001220
3.6640	0.001216
3.6650	0.001211
3.6660	0.001207
3.6670	0.001202
3.6680	0.001198
3.6690	0.001194
3.6700	0.001189
3.6710	0.001185
3.6720	0.001181
3.6730	0.001176
3.6740	0.001172
3.6750	0.001168
3.6760	0.001163
3.6770	0.001159
3.6780	0.001155
3.6790	0.001151
3.6800	0.001146
3.6810	0.001142
3.6820	0.001138
3.6830	0.001134
3.6840	0.001130
3.6850	0.001125
3.6860	0.001121
3.6870	0.001117
3.6880	0.001113
3.6890	0.001109
3.6900	0.001105
3.6910	0.001101
3.6920	0.001097
3.6930	0.001093
3.6940	0.001089
3.6950	0.001085
3.6960	0.001081
3.6970	0.001077
3.6980	0.001073
3.6990	0.001069
3.7000	0.001065
3.7010	0.001061
3.7020	0.001057
3.7030	0.001053
3.7040	0.001049
3.7050	0.001045
3.7060	0.001041
3.7070	0.001038
3.7080	0.001034
3.7090	0.001030
3.7100	0.001026
3.7110	0.001022
3.7120	0.001018
3.7130	0.001015
3.7140	0.001011
3.7150	0.001007
3.7160	0.001003
3.7170	0.001000
3.7180	0.000996
3.7190	0.000992
3.7200	0.000989
3.7210	0.000985
3.7220	0.000981
3.7230	0.000978
3.7240	0.000974
3.7250	0.000970
3.7260	0.000967
3.7270	0.000963
3.7280	0.000960
3.7290	0.000956
3.7300	0.000952
3.7310	0.000949
3.7320	0.000945
3.7330	0.000942
3.7340	0.000938
3.7350	0.000935
3.7360	0.000931
3.7370	0.000928
3.7380	0.000924
3.7390	0.000921
3.7400	0.000918
3.7410	0.000914
3.7420	0.000911
3.7430	0.000907
3.7440	0.000904
3.7450	0.000901
3.7460	0.000897
3.7470	0.000894
3.7480	0.000890
3.7490	0.000887
3.7500	0.000884
3.7510	0.000881
3.7520	0.000877
3.7530	0.000874
3.7540	0.000871
3.7550	0.000867
3.7560	0.000864
3.7570	0.000861
3.7580	0.000858
3.7590	0.000854
3.7600	0.000851
3.7610	0.000848
3.7620	0.000845
3.7630	0.000842
3.7640	0.000839
3.7650	0.000835
3.7660	0.000832
3.7670	0.000829
3.7680	0.000826
3.7690	0.000823
3.7700	0.000820
3.7710	0.000817
3.7720	0.000814
3.7730	0.000811
3.7740	0.000808
3.7750	0.000804
3.7760	0.000801
3.7770	0.000798
3.7780	0.000795
3.7790	0.000792
3.7800	0.000789
3.7810	0.000786
3.7820	0.000783
3.7830	0.000781
3.7840	0.000778
3.7850	0.000775
3.7860	0.000772
3.7870	0.000769
3.7880	0.000766
3.7890	0.000763
3.7900	0.000760
3.7910	0.000757
3.7920	0.000754
3.7930	0.000752
3.7940	0.000749
3.7950	0.000746
3.7960	0.000743
3.7970	0.000740
3.7980	0.000737
3.7990	0.000735
3.8000	0.000732
3.8010	0.000729
3.8020	0.000726
3.8030	0.000724
3.8040	0.000721
3.8050	0.000718
3.8060	0.000715
3.8070	0.000713
3.8080	0.000710
3.8090	0.000707
3.8100	0.000704
3.8110	0.000702
3.8120	0.000699
3.8130	0.000696
3.8140	0.000694
3.8150	0.000691
3.8160	0.000689
3.8170	0.000686
3.8180	0.000683
3.8190	0.000681
3.8200	0.000678
3.8210	0.000676
3.8220	0.000673
3.8230	0.000670
3.8240	0.000668
3.8250	0.000665
3.8260	0.000663
3.8270	0.000660
3.8280	0.000658
3.8290	0.000655
3.8300	0.000653
3.8310	0.000650
3.8320	0.000648
3.8330	0.000645
3.8340	0.000643
3.8350	0.000640
3.8360	0.000638
3.8370	0.000635
3.8380	0.000633
3.8390	0.000631
3.8400	0.000628
3.8410	0.000626
3.8420	0.000623
3.8430	0.000621
3.8440	0.000619
3.8450	0.000616
3.8460	0.000614
3.8470	0.000611
3.8480	0.000609
3.8490	0.000607
3.8500	0.000604
3.8510	0.000602
3.8520	0.000600
3.8530	0.000597
3.8540	0.000595
3.8550	0.000593
3.8560	0.000591
3.8570	0.000588
3.8580	0.000586
3.8590	0.000584
3.8600	0.000582
3.8610	0.000579
3.8620	0.000577
3.8630	0.000575
3.8640	0.000573
3.8650	0.000570
3.8660	0.000568
3.8670	0.000566
3.8680	0.000564
3.8690	0.000562
3.8700	0.000560
3.8710	0.000557
3.8720	0.000555
3.8730	0.000553
3.8740	0.000551
3.8750	0.000549
3.8760	0.000547
3.8770	0.000545
3.8780	0.000542
3.8790	0.000540
3.8800	0.000538
3.8810	0.000536
3.8820	0.000534
3.8830	0.000532
3.8840	0.000530
3.8850	0.000528
3.8860	0.000526
3.8870	0.000524
3.8880	0.000522
3.8890	0.000520
3.8900	0.000518
3.8910	0.000516
3.8920	0.000514
3.8930	0.000512
3.8940	0.000510
3.8950	0.000508
3.8960	0.000506
3.8970	0.000504
3.8980	0.000502
3.8990	0.000500
3.9000	0.000498
3.9010	0.000496
3.9020	0.000494
3.9030	0.000492
3.9040	0.000490
3.9050	0.000488
3.9060	0.000486
3.9070	0.000485
3.9080	0.000483
3.9090	0.000481
3.9100	0.000479
3.9110	0.000477
3.9120	0.000475
3.9130	0.000473
3.9140	0.000471
3.9150	0.000470
3.9160	0.000468
3.9170	0.000466
3.9180	0.000464
3.9190	0.000462
3.9200	0.000460
3.9210	0.000459
3.9220	0.000457
3.9230	0.000455
3.9240	0.000453
3.9250	0.000452
3.9260	0.000450
3.9270	0.000448
3.9280	0.000446
3.9290	0.000445
3.9300	0.000443
3.9310	0.000441
3.9320	0.000439
3.9330	0.000438
3.9340	0.000436
3.9350	0.000434
3.9360	0.000432
3.9370	0.000431
3.9380	0.000429
3.9390	0.000427
3.9400	0.000426
3.9410	0.000424
3.9420	0.000422
3.9430	0.000421
3.9440	0.000419
3.9450	0.000417
3.9460	0.000416
3.9470	0.000414
3.9480	0.000412
3.9490	0.000411
3.9500	0.000409
3.9510	0.000408
3.9520	0.000406
3.9530	0.000404
3.9540	0.000403
3.9550	0.000401
3.9560	0.000400
3.9570	0.000398
3.9580	0.000396
3.9590	0.000395
3.9600	0.000393
3.9610	0.000392
3.9620	0.000390
3.9630	0.000389
3.9640	0.000387
3.9650	0.000386
3.9660	0.000384
3.9670	0.000383
3.9680	0.000381
3.9690	0.000380
3.9700	0.000378
3.9710	0.000377
3.9720	0.000375
3.9730	0.000374
3.9740	0.000372
3.9750	0.000371
3.9760	0.000369
3.9770	0.000368
3.9780	0.000366
3.9790	0.000365
3.9800	0.000363
3.9810	0.000362
3.9820	0.000360
3.9830	0.000359
3.9840	0.000358
3.9850	0.000356
3.9860	0.000355
3.9870	0.000353
3.9880	0.000352
3.9890	0.000351
3.9900	0.000349
3.9910	0.000348
3.9920	0.000346
3.9930	0.000345
3.9940	0.000344
3.9950	0.000342
3.9960	0.000341
3.9970	0.000340
3.9980	0.000338
3.9990	0.000337
4.0000	0.000335
