Time	y(t)
0.0000	0.500000
0.0010	0.500250
0.0020	0.500500
0.0030	0.500750
0.0040	0.501000
0.0050	0.501250
0.0060	0.501500
0.0070	0.501750
0.0080	0.502000
0.0090	0.502250
0.0100	0.502500
0.0110	0.502750
0.0120	0.503000
0.0130	0.503250
0.0140	0.503500
0.0150	0.503750
0.0160	0.504000
0.0170	0.504250
0.0180	0.504500
0.0190	0.504750
0.0200	0.505000
0.0210	0.505250
0.0220	0.505500
0.0230	0.505750
0.0240	0.506000
0.0250	0.506250
0.0260	0.506500
0.0270	0.506750
0.0280	0.507000
0.0290	0.507249
0.0300	0.507499
0.0310	0.507749
0.0320	0.507999
0.0330	0.508249
0.0340	0.508499
0.0350	0.508749
0.0360	0.508999
0.0370	0.509249
0.0380	0.509499
0.0390	0.509749
0.0400	0.509999
0.0410	0.510249
0.0420	0.510498
0.0430	0.510748
0.0440	0.510998
0.0450	0.511248
0.0460	0.511498
0.0470	0.511748
0.0480	0.511998
0.0490	0.512248
0.0500	0.512497
0.0510	0.512747
0.0520	0.512997
0.0530	0.513247
0.0540	0.513497
0.0550	0.513747
0.0560	0.513996
0.0570	0.514246
0.0580	0.514496
0.0590	0.514746
0.0600	0.514996
0.0610	0.515245
0.0620	0.515495
0.0630	0.515745
0.0640	0.515995
0.0650	0.516244
0.0660	0.516494
0.0670	0.516744
0.0680	0.516993
0.0690	0.517243
0.0700	0.517493
0.0710	0.517743
0.0720	0.517992
0.0730	0.518242
0.0740	0.518492
0.0750	0.518741
0.0760	0.518991
0.0770	0.519240
0.0780	0.519490
0.0790	0.519740
0.0800	0.519989
0.0810	0.520239
0.0820	0.520489
0.0830	0.520738
0.0840	0.520988
0.0850	0.521237
0.0860	0.521487
0.0870	0.521736
0.0880	0.521986
0.0890	0.522235
0.0900	0.522485
0.0910	0.522734
0.0920	0.522984
0.0930	0.523233
0.0940	0.523483
0.0950	0.523732
0.0960	0.523982
0.0970	0.524231
0.0980	0.524480
0.0990	0.524730
0.1000	0.524979
0.1010	0.525229
0.1020	0.525478
0.1030	0.525727
0.1040	0.525977
0.1050	0.526226
0.1060	0.526475
0.1070	0.526725
0.1080	0.526974
0.1090	0.527223
0.1100	0.527472
0.1110	0.527722
0.1120	0.527971
0.1130	0.528220
0.1140	0.528469
0.1150	0.528718
0.1160	0.528968
0.1170	0.529217
0.1180	0.529466
0.1190	0.529715
0.1200	0.529964
0.1210	0.530213
0.1220	0.530462
0.1230	0.530711
0.1240	0.530960
0.1250	0.531209
0.1260	0.531458
0.1270	0.531707
0.1280	0.531956
0.1290	0.532205
0.1300	0.532454
0.1310	0.532703
0.1320	0.532952
0.1330	0.533201
0.1340	0.533450
0.1350	0.533699
0.1360	0.533948
0.1370	0.534197
0.1380	0.534445
0.1390	0.534694
0.1400	0.534943
0.1410	0.535192
0.1420	0.535440
0.1430	0.535689
0.1440	0.535938
0.1450	0.536187
0.1460	0.536435
0.1470	0.536684
0.1480	0.536933
0.1490	0.537181
0.1500	0.537430
0.1510	0.537678
0.1520	0.537927
0.1530	0.538176
0.1540	0.538424
0.1550	0.538673
0.1560	0.538921
0.1570	0.539170
0.1580	0.539418
0.1590	0.539666
0.1600	0.539915
0.1610	0.540163
0.1620	0.540412
0.1630	0.540660
0.1640	0.540908
0.1650	0.541157
0.1660	0.541405
0.1670	0.541653
0.1680	0.541901
0.1690	0.542150
0.1700	0.542398
0.1710	0.542646
0.1720	0.542894
0.1730	0.543142
0.1740	0.543391
0.1750	0.543639
0.1760	0.543887
0.1770	0.544135
0.1780	0.544383
0.1790	0.544631
0.1800	0.544879
0.1810	0.545127
0.1820	0.545375
0.1830	0.545623
0.1840	0.545871
0.1850	0.546119
0.1860	0.546366
0.1870	0.546614
0.1880	0.546862
0.1890	0.547110
0.1900	0.547358
0.1910	0.547605
0.1920	0.547853
0.1930	0.548101
0.1940	0.548348
0.1950	0.548596
0.1960	0.548844
0.1970	0.549091
0.1980	0.549339
0.1990	0.549586
0.2000	0.549834
0.2010	0.550082
0.2020	0.550329
0.2030	0.550576
0.2040	0.550824
0.2050	0.551071
0.2060	0.551319
0.2070	0.551566
0.2080	0.551813
0.2090	0.552061
0.2100	0.552308
0.2110	0.552555
0.2120	0.552802
0.2130	0.553050
0.2140	0.553297
0.2150	0.553544
0.2160	0.553791
0.2170	0.554038
0.2180	0.554285
0.2190	0.554532
0.2200	0.554779
0.2210	0.555026
0.2220	0.555273
0.2230	0.555520
0.2240	0.555767
0.2250	0.556014
0.2260	0.556261
0.2270	0.556508
0.2280	0.556754
0.2290	0.557001
0.2300	0.557248
0.2310	0.557495
0.2320	0.557741
0.2330	0.557988
0.2340	0.558235
0.2350	0.558481
0.2360	0.558728
0.2370	0.558974
0.2380	0.559221
0.2390	0.559467
0.2400	0.559714
0.2410	0.559960
0.2420	0.560206
0.2430	0.560453
0.2440	0.560699
0.2450	0.560945
0.2460	0.561192
0.2470	0.561438
0.2480	0.561684
0.2490	0.561930
0.2500	0.562177
0.2510	0.562423
0.2520	0.562669
0.2530	0.562915
0.2540	0.563161
0.2550	0.563407
0.2560	0.563653
0.2570	0.563899
0.2580	0.564145
0.2590	0.564390
0.2600	0.564636
0.2610	0.564882
0.2620	0.565128
0.2630	0.565374
0.2640	0.565619
0.2650	0.565865
0.2660	0.566111
0.2670	0.566356
0.2680	0.566602
0.2690	0.566847
0.2700	0.567093
0.2710	0.567338
0.2720	0.567584
0.2730	0.567829
0.2740	0.568075
0.2750	0.568320
0.2760	0.568565
0.2770	0.568811
0.2780	0.569056
0.2790	0.569301
0.2800	0.569546
0.2810	0.569791
0.2820	0.570036
0.2830	0.570282
0.2840	0.570527
0.2850	0.570772
0.2860	0.571017
0.2870	0.571262
0.2880	0.571506
0.2890	0.571751
0.2900	0.571996
0.2910	0.572241
0.2920	0.572486
0.2930	0.572730
0.2940	0.572975
0.2950	0.573220
0.2960	0.573464
0.2970	0.573709
0.2980	0.573954
0.2990	0.574198
0.3000	0.574443
0.3010	0.574687
0.3020	0.574931
0.3030	0.575176
0.3040	0.575420
0.3050	0.575664
0.3060	0.575909
0.3070	0.576153
0.3080	0.576397
0.3090	0.576641
0.3100	0.576885
0.3110	0.577129
0.3120	0.577373
0.3130	0.577617
0.3140	0.577861
0.3150	0.578105
0.3160	0.578349
0.3170	0.578593
0.3180	0.578837
0.3190	0.579081
0.3200	0.579324
0.3210	0.579568
0.3220	0.579812
0.3230	0.580055
0.3240	0.580299
0.3250	0.580542
0.3260	0.580786
0.3270	0.581029
0.3280	0.581273
0.3290	0.581516
0.3300	0.581759
0.3310	0.582003
0.3320	0.582246
0.3330	0.582489
0.3340	0.582732
0.3350	0.582975
0.3360	0.583219
0.3370	0.583462
0.3380	0.583705
0.3390	0.583948
0.3400	0.584191
0.3410	0.584433
0.3420	0.584676
0.3430	0.584919
0.3440	0.585162
0.3450	0.585405
0.3460	0.585647
0.3470	0.585890
0.3480	0.586133
0.3490	0.586375
0.3500	0.586618
0.3510	0.586860
0.3520	0.587102
0.3530	0.587345
0.3540	0.587587
0.3550	0.587830
0.3560	0.588072
0.3570	0.588314
0.3580	0.588556
0.3590	0.588798
0.3600	0.589040
0.3610	0.589282
0.3620	0.589524
0.3630	0.589766
0.3640	0.590008
0.3650	0.590250
0.3660	0.590492
0.3670	0.590734
0.3680	0.590976
0.3690	0.591217
0.3700	0.591459
0.3710	0.591701
0.3720	0.591942
0.3730	0.592184
0.3740	0.592425
0.3750	0.592667
0.3760	0.592908
0.3770	0.593149
0.3780	0.593391
0.3790	0.593632
0.3800	0.593873
0.3810	0.594114
0.3820	0.594355
0.3830	0.594596
0.3840	0.594837
0.3850	0.595078
0.3860	0.595319
0.3870	0.595560
0.3880	0.595801
0.3890	0.596042
0.3900	0.596283
0.3910	0.596523
0.3920	0.596764
0.3930	0.597005
0.3940	0.597245
0.3950	0.597486
0.3960	0.597726
0.3970	0.597967
0.3980	0.598207
0.3990	0.598447
0.4000	0.598688
0.4010	0.598928
0.4020	0.599168
0.4030	0.599408
0.4040	0.599648
0.4050	0.599888
0.4060	0.600128
0.4070	0.600368
0.4080	0.600608
0.4090	0.600848
0.4100	0.601088
0.4110	0.601328
0.4120	0.601567
0.4130	0.601807
0.4140	0.602047
0.4150	0.602286
0.4160	0.602526
0.4170	0.602765
0.4180	0.603005
0.4190	0.603244
0.4200	0.603483
0.4210	0.603723
0.4220	0.603962
0.4230	0.604201
0.4240	0.604440
0.4250	0.604679
0.4260	0.604918
0.4270	0.605157
0.4280	0.605396
0.4290	0.605635
0.4300	0.605874
0.4310	0.606112
0.4320	0.606351
0.4330	0.606590
0.4340	0.606828
0.4350	0.607067
0.4360	0.607305
0.4370	0.607544
0.4380	0.607782
0.4390	0.608021
0.4400	0.608259
0.4410	0.608497
0.4420	0.608735
0.4430	0.608974
0.4440	0.609212
0.4450	0.609450
0.4460	0.609688
0.4470	0.609926
0.4480	0.610164
0.4490	0.610401
0.4500	0.610639
0.4510	0.610877
0.4520	0.611115
0.4530	0.611352
0.4540	0.611590
0.4550	0.611827
0.4560	0.612065
0.4570	0.612302
0.4580	0.612540
0.4590	0.612777
0.4600	0.613014
0.4610	0.613251
0.4620	0.613489
0.4630	0.613726
0.4640	0.613963
0.4650	0.614200
0.4660	0.614437
0.4670	0.614673
0.4680	0.614910
0.4690	0.615147
0.4700	0.615384
0.4710	0.615620
0.4720	0.615857
0.4730	0.616094
0.4740	0.616330
0.4750	0.616567
0.4760	0.616803
0.4770	0.617039
0.4780	0.617275
0.4790	0.617512
0.4800	0.617748
0.4810	0.617984
0.4820	0.618220
0.4830	0.618456
0.4840	0.618692
0.4850	0.618928
0.4860	0.619164
0.4870	0.619399
0.4880	0.619635
0.4890	0.619871
0.4900	0.620106
0.4910	0.620342
0.4920	0.620577
0.4930	0.620813
0.4940	0.621048
0.4950	0.621284
0.4960	0.621519
0.4970	0.621754
0.4980	0.621989
0.4990	0.622224
0.5000	0.622459
0.5010	0.622694
0.5020	0.622929
0.5030	0.623164
0.5040	0.623399
0.5050	0.623634
0.5060	0.623868
0.5070	0.624103
0.5080	0.624338
0.5090	0.624572
0.5100	0.624806
0.5110	0.625041
0.5120	0.625275
0.5130	0.625509
0.5140	0.625744
0.5150	0.625978
0.5160	0.626212
0.5170	0.626446
0.5180	0.626680
0.5190	0.626914
0.5200	0.627148
0.5210	0.627382
0.5220	0.627615
0.5230	0.627849
0.5240	0.628083
0.5250	0.628316
0.5260	0.628550
0.5270	0.628783
0.5280	0.629017
0.5290	0.629250
0.5300	0.629483
0.5310	0.629716
0.5320	0.629949
0.5330	0.630183
0.5340	0.630416
0.5350	0.630649
0.5360	0.630881
0.5370	0.631114
0.5380	0.631347
0.5390	0.631580
0.5400	0.631812
0.5410	0.632045
0.5420	0.632278
0.5430	0.632510
0.5440	0.632742
0.5450	0.632975
0.5460	0.633207
0.5470	0.633439
0.5480	0.633671
0.5490	0.633904
0.5500	0.634136
0.5510	0.634368
0.5520	0.634599
0.5530	0.634831
0.5540	0.635063
0.5550	0.635295
0.5560	0.635527
0.5570	0.635758
0.5580	0.635990
0.5590	0.636221
0.5600	0.636453
0.5610	0.636684
0.5620	0.636915
0.5630	0.637146
0.5640	0.637378
0.5650	0.637609
0.5660	0.637840
0.5670	0.638071
0.5680	0.638302
0.5690	0.638532
0.5700	0.638763
0.5710	0.638994
0.5720	0.639225
0.5730	0.639455
0.5740	0.639686
0.5750	0.639916
0.5760	0.640146
0.5770	0.640377
0.5780	0.640607
0.5790	0.640837
0.5800	0.641067
0.5810	0.641297
0.5820	0.641527
0.5830	0.641757
0.5840	0.641987
0.5850	0.642217
0.5860	0.642447
0.5870	0.642677
0.5880	0.642906
0.5890	0.643136
0.5900	0.643365
0.5910	0.643595
0.5920	0.643824
0.5930	0.644053
0.5940	0.644282
0.5950	0.644512
0.5960	0.644741
0.5970	0.644970
0.5980	0.645199
0.5990	0.645427
0.6000	0.645656
0.6010	0.645885
0.6020	0.646114
0.6030	0.646342
0.6040	0.646571
0.6050	0.646799
0.6060	0.647028
0.6070	0.647256
0.6080	0.647484
0.6090	0.647713
0.6100	0.647941
0.6110	0.648169
0.6120	0.648397
0.6130	0.648625
0.6140	0.648853
0.6150	0.649081
0.6160	0.649308
0.6170	0.649536
0.6180	0.649764
0.6190	0.649991
0.6200	0.650219
0.6210	0.650446
0.6220	0.650673
0.6230	0.650901
0.6240	0.651128
0.6250	0.651355
0.6260	0.651582
0.6270	0.651809
0.6280	0.652036
0.6290	0.652263
0.6300	0.652489
0.6310	0.652716
0.6320	0.652943
0.6330	0.653169
0.6340	0.653396
0.6350	0.653622
0.6360	0.653849
0.6370	0.654075
0.6380	0.654301
0.6390	0.654527
0.6400	0.654753
0.6410	0.654979
0.6420	0.655205
0.6430	0.655431
0.6440	0.655657
0.6450	0.655883
0.6460	0.656109
0.6470	0.656334
0.6480	0.656560
0.6490	0.656785
0.6500	0.657010
0.6510	0.657236
0.6520	0.657461
0.6530	0.657686
0.6540	0.657911
0.6550	0.658136
0.6560	0.658361
0.6570	0.658586
0.6580	0.658811
0.6590	0.659036
0.6600	0.659260
0.6610	0.659485
0.6620	0.659710
0.6630	0.659934
0.6640	0.660158
0.6650	0.660383
0.6660	0.660607
0.6670	0.660831
0.6680	0.661055
0.6690	0.661279
0.6700	0.661503
0.6710	0.661727
0.6720	0.661951
0.6730	0.662175
0.6740	0.662398
0.6750	0.662622
0.6760	0.662845
0.6770	0.663069
0.6780	0.663292
0.6790	0.663515
0.6800	0.663739
0.6810	0.663962
0.6820	0.664185
0.6830	0.664408
0.6840	0.664631
0.6850	0.664854
0.6860	0.665077
0.6870	0.665299
0.6880	0.665522
0.6890	0.665744
0.6900	0.665967
0.6910	0.666189
0.6920	0.666412
0.6930	0.666634
0.6940	0.666856
0.6950	0.667078
0.6960	0.667300
0.6970	0.667522
0.6980	0.667744
0.6990	0.667966
0.7000	0.668188
0.7010	0.668409
0.7020	0.668631
0.7030	0.668853
0.7040	0.669074
0.7050	0.669295
0.7060	0.669517
0.7070	0.669738
0.7080	0.669959
0.7090	0.670180
0.7100	0.670401
0.7110	0.670622
0.7120	0.670843
0.7130	0.671064
0.7140	0.671284
0.7150	0.671505
0.7160	0.671726
0.7170	0.671946
0.7180	0.672166
0.7190	0.672387
0.7200	0.672607
0.7210	0.672827
0.7220	0.673047
0.7230	0.673267
0.7240	0.673487
0.7250	0.673707
0.7260	0.673927
0.7270	0.674147
0.7280	0.674366
0.7290	0.674586
0.7300	0.674805
0.7310	0.675025
0.7320	0.675244
0.7330	0.675463
0.7340	0.675682
0.7350	0.675902
0.7360	0.676121
0.7370	0.676339
0.7380	0.676558
0.7390	0.676777
0.7400	0.676996
0.7410	0.677214
0.7420	0.677433
0.7430	0.677652
0.7440	0.677870
0.7450	0.678088
0.7460	0.678306
0.7470	0.678525
0.7480	0.678743
0.7490	0.678961
0.7500	0.679179
0.7510	0.679397
0.7520	0.679614
0.7530	0.679832
0.7540	0.680050
0.7550	0.680267
0.7560	0.680485
0.7570	0.680702
0.7580	0.680919
0.7590	0.681137
0.7600	0.681354
0.7610	0.681571
0.7620	0.681788
0.7630	0.682005
0.7640	0.682222
0.7650	0.682438
0.7660	0.682655
0.7670	0.682872
0.7680	0.683088
0.7690	0.683305
0.7700	0.683521
0.7710	0.683737
0.7720	0.683953
0.7730	0.684169
0.7740	0.684386
0.7750	0.684602
0.7760	0.684817
0.7770	0.685033
0.7780	0.685249
0.7790	0.685465
0.7800	0.685680
0.7810	0.685896
0.7820	0.686111
0.7830	0.686326
0.7840	0.686542
0.7850	0.686757
0.7860	0.686972
0.7870	0.687187
0.7880	0.687402
0.7890	0.687617
0.7900	0.687831
0.7910	0.688046
0.7920	0.688261
0.7930	0.688475
0.7940	0.688690
0.7950	0.688904
0.7960	0.689118
0.7970	0.689332
0.7980	0.689546
0.7990	0.689761
0.8000	0.689974
0.8010	0.690188
0.8020	0.690402
0.8030	0.690616
0.8040	0.690829
0.8050	0.691043
0.8060	0.691256
0.8070	0.691470
0.8080	0.691683
0.8090	0.691896
0.8100	0.692110
0.8110	0.692323
0.8120	0.692536
0.8130	0.692748
0.8140	0.692961
0.8150	0.693174
0.8160	0.693387
0.8170	0.693599
0.8180	0.693812
0.8190	0.694024
0.8200	0.694236
0.8210	0.694449
0.8220	0.694661
0.8230	0.694873
0.8240	0.695085
0.8250	0.695297
0.8260	0.695508
0.8270	0.695720
0.8280	0.695932
0.8290	0.696143
0.8300	0.696355
0.8310	0.696566
0.8320	0.696778
0.8330	0.696989
0.8340	0.697200
0.8350	0.697411
0.8360	0.697622
0.8370	0.697833
0.8380	0.698044
0.8390	0.698255
0.8400	0.698465
0.8410	0.698676
0.8420	0.698886
0.8430	0.699097
0.8440	0.699307
0.8450	0.699517
0.8460	0.699727
0.8470	0.699937
0.8480	0.700147
0.8490	0.700357
0.8500	0.700567
0.8510	0.700777
0.8520	0.700987
0.8530	0.701196
0.8540	0.701406
0.8550	0.701615
0.8560	0.701824
0.8570	0.702033
0.8580	0.702243
0.8590	0.702452
0.8600	0.702661
0.8610	0.702870
0.8620	0.703078
0.8630	0.703287
0.8640	0.703496
0.8650	0.703704
0.8660	0.703913
0.8670	0.704121
0.8680	0.704329
0.8690	0.704538
0.8700	0.704746
0.8710	0.704954
0.8720	0.705162
0.8730	0.705370
0.8740	0.705577
0.8750	0.705785
0.8760	0.705993
0.8770	0.706200
0.8780	0.706408
0.8790	0.706615
0.8800	0.706822
0.8810	0.707029
0.8820	0.707236
0.8830	0.707444
0.8840	0.707650
0.8850	0.707857
0.8860	0.708064
0.8870	0.708271
0.8880	0.708477
0.8890	0.708684
0.8900	0.708890
0.8910	0.709096
0.8920	0.709303
0.8930	0.709509
0.8940	0.709715
0.8950	0.709921
0.8960	0.710127
0.8970	0.710333
0.8980	0.710538
0.8990	0.710744
0.9000	0.710950
0.9010	0.711155
0.9020	0.711360
0.9030	0.711566
0.9040	0.711771
0.9050	0.711976
0.9060	0.712181
0.9070	0.712386
0.9080	0.712591
0.9090	0.712795
0.9100	0.713000
0.9110	0.713205
0.9120	0.713409
0.9130	0.713614
0.9140	0.713818
0.9150	0.714022
0.9160	0.714226
0.9170	0.714430
0.9180	0.714634
0.9190	0.714838
0.9200	0.715042
0.9210	0.715246
0.9220	0.715449
0.9230	0.715653
0.9240	0.715856
0.9250	0.716060
0.9260	0.716263
0.9270	0.716466
0.9280	0.716669
0.9290	0.716872
0.9300	0.717075
0.9310	0.717278
0.9320	0.717481
0.9330	0.717684
0.9340	0.717886
0.9350	0.718089
0.9360	0.718291
0.9370	0.718493
0.9380	0.718695
0.9390	0.718898
0.9400	0.719100
0.9410	0.719302
0.9420	0.719503
0.9430	0.719705
0.9440	0.719907
0.9450	0.720109
0.9460	0.720310
0.9470	0.720511
0.9480	0.720713
0.9490	0.720914
0.9500	0.721115
0.9510	0.721316
0.9520	0.721517
0.9530	0.721718
0.9540	0.721919
0.9550	0.722120
0.9560	0.722320
0.9570	0.722521
0.9580	0.722721
0.9590	0.722922
0.9600	0.723122
0.9610	0.723322
0.9620	0.723522
0.9630	0.723722
0.9640	0.723922
0.9650	0.724122
0.9660	0.724321
0.9670	0.724521
0.9680	0.724721
0.9690	0.724920
0.9700	0.725119
0.9710	0.725319
0.9720	0.725518
0.9730	0.725717
0.9740	0.725916
0.9750	0.726115
0.9760	0.726314
0.9770	0.726513
0.9780	0.726711
0.9790	0.726910
0.9800	0.727108
0.9810	0.727307
0.9820	0.727505
0.9830	0.727703
0.9840	0.727901
0.9850	0.728099
0.9860	0.728297
0.9870	0.728495
0.9880	0.728693
0.9890	0.728890
0.9900	0.729088
0.9910	0.729285
0.9920	0.729483
0.9930	0.729680
0.9940	0.729877
0.9950	0.730074
0.9960	0.730271
0.9970	0.730468
0.9980	0.730665
0.9990	0.730862
1.0000	0.731059
1.0010	0.731255
1.0020	0.731452
1.0030	0.731648
1.0040	0.731844
1.0050	0.732041
1.0060	0.732237
1.0070	0.732433
1.0080	0.732629
1.0090	0.732824
1.0100	0.733020
1.0110	0.733216
1.0120	0.733411
1.0130	0.733607
1.0140	0.733802
1.0150	0.733998
1.0160	0.734193
1.0170	0.734388
1.0180	0.734583
1.0190	0.734778
1.0200	0.734973
1.0210	0.735167
1.0220	0.735362
1.0230	0.735557
1.0240	0.735751
1.0250	0.735945
1.0260	0.736140
1.0270	0.736334
1.0280	0.736528
1.0290	0.736722
1.0300	0.736916
1.0310	0.737110
1.0320	0.737303
1.0330	0.737497
1.0340	0.737691
1.0350	0.737884
1.0360	0.738077
1.0370	0.738271
1.0380	0.738464
1.0390	0.738657
1.0400	0.738850
1.0410	0.739043
1.0420	0.739236
1.0430	0.739428
1.0440	0.739621
1.0450	0.739814
1.0460	0.740006
1.0470	0.740198
1.0480	0.740391
1.0490	0.740583
1.0500	0.740775
1.0510	0.740967
1.0520	0.741159
1.0530	0.741351
1.0540	0.741542
1.0550	0.741734
1.0560	0.741925
1.0570	0.742117
1.0580	0.742308
1.0590	0.742499
1.0600	0.742691
1.0610	0.742882
1.0620	0.743073
1.0630	0.743263
1.0640	0.743454
1.0650	0.743645
1.0660	0.743835
1.0670	0.744026
1.0680	0.744216
1.0690	0.744407
1.0700	0.744597
1.0710	0.744787
1.0720	0.744977
1.0730	0.745167
1.0740	0.745357
1.0750	0.745547
1.0760	0.745736
1.0770	0.745926
1.0780	0.746115
1.0790	0.746305
1.0800	0.746494
1.0810	0.746683
1.0820	0.746872
1.0830	0.747061
1.0840	0.747250
1.0850	0.747439
1.0860	0.747628
1.0870	0.747816
1.0880	0.748005
1.0890	0.748193
1.0900	0.748382
1.0910	0.748570
1.0920	0.748758
1.0930	0.748946
1.0940	0.749134
1.0950	0.749322
1.0960	0.749510
1.0970	0.749698
1.0980	0.749885
1.0990	0.750073
1.1000	0.750260
1.1010	0.750447
1.1020	0.750635
1.1030	0.750822
1.1040	0.751009
1.1050	0.751196
1.1060	0.751383
1.1070	0.751569
1.1080	0.751756
1.1090	0.751943
1.1100	0.752129
1.1110	0.752315
1.1120	0.752502
1.1130	0.752688
1.1140	0.752874
1.1150	0.753060
1.1160	0.753246
1.1170	0.753432
1.1180	0.753618
1.1190	0.753803
1.1200	0.753989
1.1210	0.754174
1.1220	0.754360
1.1230	0.754545
1.1240	0.754730
1.1250	0.754915
1.1260	0.755100
1.1270	0.755285
1.1280	0.755470
1.1290	0.755654
1.1300	0.755839
1.1310	0.756023
1.1320	0.756208
1.1330	0.756392
1.1340	0.756576
1.1350	0.756760
1.1360	0.756944
1.1370	0.757128
1.1380	0.757312
1.1390	0.757496
1.1400	0.757680
1.1410	0.757863
1.1420	0.758047
1.1430	0.758230
1.1440	0.758413
1.1450	0.758596
1.1460	0.758780
1.1470	0.758963
1.1480	0.759145
1.1490	0.759328
1.1500	0.759511
1.1510	0.759694
1.1520	0.759876
1.1530	0.760058
1.1540	0.760241
1.1550	0.760423
1.1560	0.760605
1.1570	0.760787
1.1580	0.760969
1.1590	0.761151
1.1600	0.761333
1.1610	0.761514
1.1620	0.761696
1.1630	0.761877
1.1640	0.762059
1.1650	0.762240
1.1660	0.762421
1.1670	0.762602
1.1680	0.762783
1.1690	0.762964
1.1700	0.763145
1.1710	0.763326
1.1720	0.763506
1.1730	0.763687
1.1740	0.763867
1.1750	0.764048
1.1760	0.764228
1.1770	0.764408
1.1780	0.764588
1.1790	0.764768
1.1800	0.764948
1.1810	0.765128
1.1820	0.765307
1.1830	0.765487
1.1840	0.765666
1.1850	0.765846
1.1860	0.766025
1.1870	0.766204
1.1880	0.766383
1.1890	0.766562
1.1900	0.766741
1.1910	0.766920
1.1920	0.767099
1.1930	0.767277
1.1940	0.767456
1.1950	0.767634
1.1960	0.767812
1.1970	0.767991
1.1980	0.768169
1.1990	0.768347
1.2000	0.768525
1.2010	0.768703
1.2020	0.768880
1.2030	0.769058
1.2040	0.769236
1.2050	0.769413
1.2060	0.769590
1.2070	0.769768
1.2080	0.769945
1.2090	0.770122
1.2100	0.770299
1.2110	0.770476
1.2120	0.770653
1.2130	0.770829
1.2140	0.771006
1.2150	0.771182
1.2160	0.771359
1.2170	0.771535
1.2180	0.771711
1.2190	0.771888
1.2200	0.772064
1.2210	0.772239
1.2220	0.772415
1.2230	0.772591
1.2240	0.772767
1.2250	0.772942
1.2260	0.773118
1.2270	0.773293
1.2280	0.773468
1.2290	0.773644
1.2300	0.773819
1.2310	0.773994
1.2320	0.774168
1.2330	0.774343
1.2340	0.774518
1.2350	0.774692
1.2360	0.774867
1.2370	0.775041
1.2380	0.775216
1.2390	0.775390
1.2400	0.775564
1.2410	0.775738
1.2420	0.775912
1.2430	0.776086
1.2440	0.776260
1.2450	0.776433
1.2460	0.776607
1.2470	0.776780
1.2480	0.776953
1.2490	0.777127
1.2500	0.777300
1.2510	0.777473
1.2520	0.777646
1.2530	0.777819
1.2540	0.777992
1.2550	0.778164
1.2560	0.778337
1.2570	0.778509
1.2580	0.778682
1.2590	0.778854
1.2600	0.779026
1.2610	0.779198
1.2620	0.779370
1.2630	0.779542
1.2640	0.779714
1.2650	0.779886
1.2660	0.780057
1.2670	0.780229
1.2680	0.780400
1.2690	0.780572
1.2700	0.780743
1.2710	0.780914
1.2720	0.781085
1.2730	0.781256
1.2740	0.781427
1.2750	0.781597
1.2760	0.781768
1.2770	0.781939
1.2780	0.782109
1.2790	0.782280
1.2800	0.782450
1.2810	0.782620
1.2820	0.782790
1.2830	0.782960
1.2840	0.783130
1.2850	0.783300
1.2860	0.783469
1.2870	0.783639
1.2880	0.783808
1.2890	0.783978
1.2900	0.784147
1.2910	0.784316
1.2920	0.784486
1.2930	0.784655
1.2940	0.784823
1.2950	0.784992
1.2960	0.785161
1.2970	0.785330
1.2980	0.785498
1.2990	0.785667
1.3000	0.785835
1.3010	0.786003
1.3020	0.786171
1.3030	0.786339
1.3040	0.786507
1.3050	0.786675
1.3060	0.786843
1.3070	0.787011
1.3080	0.787178
1.3090	0.787346
1.3100	0.787513
1.3110	0.787680
1.3120	0.787848
1.3130	0.788015
1.3140	0.788182
1.3150	0.788349
1.3160	0.788515
1.3170	0.788682
1.3180	0.788849
1.3190	0.789015
1.3200	0.789182
1.3210	0.789348
1.3220	0.789514
1.3230	0.789680
1.3240	0.789846
1.3250	0.790012
1.3260	0.790178
1.3270	0.790344
1.3280	0.790510
1.3290	0.790675
1.3300	0.790841
1.3310	0.791006
1.3320	0.791171
1.3330	0.791336
1.3340	0.791502
1.3350	0.791666
1.3360	0.791831
1.3370	0.791996
1.3380	0.792161
1.3390	0.792325
1.3400	0.792490
1.3410	0.792654
1.3420	0.792819
1.3430	0.792983
1.3440	0.793147
1.3450	0.793311
1.3460	0.793475
1.3470	0.793639
1.3480	0.793802
1.3490	0.793966
1.3500	0.794130
1.3510	0.794293
1.3520	0.794456
1.3530	0.794620
1.3540	0.794783
1.3550	0.794946
1.3560	0.795109
1.3570	0.795272
1.3580	0.795434
1.3590	0.795597
1.3600	0.795760
1.3610	0.795922
1.3620	0.796085
1.3630	0.796247
1.3640	0.796409
1.3650	0.796571
1.3660	0.796733
1.3670	0.796895
1.3680	0.797057
1.3690	0.797219
1.3700	0.797380
1.3710	0.797542
1.3720	0.797703
1.3730	0.797864
1.3740	0.798026
1.3750	0.798187
1.3760	0.798348
1.3770	0.798509
1.3780	0.798670
1.3790	0.798830
1.3800	0.798991
1.3810	0.799152
1.3820	0.799312
1.3830	0.799472
1.3840	0.799633
1.3850	0.799793
1.3860	0.799953
1.3870	0.800113
1.3880	0.800273
1.3890	0.800433
1.3900	0.800592
1.3910	0.800752
1.3920	0.800911
1.3930	0.801071
1.3940	0.801230
1.3950	0.801389
1.3960	0.801548
1.3970	0.801707
1.3980	0.801866
1.3990	0.802025
1.4000	0.802184
1.4010	0.802343
1.4020	0.802501
1.4030	0.802660
1.4040	0.802818
1.4050	0.802976
1.4060	0.803134
1.4070	0.803292
1.4080	0.803450
1.4090	0.803608
1.4100	0.803766
1.4110	0.803924
1.4120	0.804081
1.4130	0.804239
1.4140	0.804396
1.4150	0.804553
1.4160	0.804711
1.4170	0.804868
1.4180	0.805025
1.4190	0.805182
1.4200	0.805338
1.4210	0.805495
1.4220	0.805652
1.4230	0.805808
1.4240	0.805965
1.4250	0.806121
1.4260	0.806277
1.4270	0.806433
1.4280	0.806590
1.4290	0.806745
1.4300	0.806901
1.4310	0.807057
1.4320	0.807213
1.4330	0.807368
1.4340	0.807524
1.4350	0.807679
1.4360	0.807834
1.4370	0.807990
1.4380	0.808145
1.4390	0.808300
1.4400	0.808455
1.4410	0.808609
1.4420	0.808764
1.4430	0.808919
1.4440	0.809073
1.4450	0.809228
1.4460	0.809382
1.4470	0.809536
1.4480	0.809690
1.4490	0.809844
1.4500	0.809998
1.4510	0.810152
1.4520	0.810306
1.4530	0.810460
1.4540	0.810613
1.4550	0.810767
1.4560	0.810920
1.4570	0.811073
1.4580	0.811227
1.4590	0.811380
1.4600	0.811533
1.4610	0.811686
1.4620	0.811838
1.4630	0.811991
1.4640	0.812144
1.4650	0.812296
1.4660	0.812449
1.4670	0.812601
1.4680	0.812753
1.4690	0.812905
1.4700	0.813057
1.4710	0.813209
1.4720	0.813361
1.4730	0.813513
1.4740	0.813665
1.4750	0.813816
1.4760	0.813968
1.4770	0.814119
1.4780	0.814270
1.4790	0.814421
1.4800	0.814573
1.4810	0.814724
1.4820	0.814874
1.4830	0.815025
1.4840	0.815176
1.4850	0.815327
1.4860	0.815477
1.4870	0.815628
1.4880	0.815778
1.4890	0.815928
1.4900	0.816078
1.4910	0.816228
1.4920	0.816378
1.4930	0.816528
1.4940	0.816678
1.4950	0.816828
1.4960	0.816977
1.4970	0.817127
1.4980	0.817276
1.4990	0.817425
1.5000	0.817574
1.5010	0.817724
1.5020	0.817873
1.5030	0.818021
1.5040	0.818170
1.5050	0.818319
1.5060	0.818468
1.5070	0.818616
1.5080	0.818765
1.5090	0.818913
1.5100	0.819061
1.5110	0.819209
1.5120	0.819357
1.5130	0.819505
1.5140	0.819653
1.5150	0.819801
1.5160	0.819949
1.5170	0.820096
1.5180	0.820244
1.5190	0.820391
1.5200	0.820538
1.5210	0.820686
1.5220	0.820833
1.5230	0.820980
1.5240	0.821127
1.5250	0.821274
1.5260	0.821420
1.5270	0.821567
1.5280	0.821714
1.5290	0.821860
1.5300	0.822006
1.5310	0.822153
1.5320	0.822299
1.5330	0.822445
1.5340	0.822591
1.5350	0.822737
1.5360	0.822882
1.5370	0.823028
1.5380	0.823174
1.5390	0.823319
1.5400	0.823465
1.5410	0.823610
1.5420	0.823755
1.5430	0.823900
1.5440	0.824045
1.5450	0.824190
1.5460	0.824335
1.5470	0.824480
1.5480	0.824625
1.5490	0.824769
1.5500	0.824914
1.5510	0.825058
1.5520	0.825202
1.5530	0.825347
1.5540	0.825491
1.5550	0.825635
1.5560	0.825779
1.5570	0.825922
1.5580	0.826066
1.5590	0.826210
1.5600	0.826353
1.5610	0.826497
1.5620	0.826640
1.5630	0.826783
1.5640	0.826927
1.5650	0.827070
1.5660	0.827213
1.5670	0.827356
1.5680	0.827498
1.5690	0.827641
1.5700	0.827784
1.5710	0.827926
1.5720	0.828069
1.5730	0.828211
1.5740	0.828353
1.5750	0.828495
1.5760	0.828637
1.5770	0.828779
1.5780	0.828921
1.5790	0.829063
1.5800	0.829205
1.5810	0.829346
1.5820	0.829488
1.5830	0.829629
1.5840	0.829770
1.5850	0.829911
1.5860	0.830053
1.5870	0.830194
1.5880	0.830335
1.5890	0.830475
1.5900	0.830616
1.5910	0.830757
1.5920	0.830897
1.5930	0.831038
1.5940	0.831178
1.5950	0.831318
1.5960	0.831459
1.5970	0.831599
1.5980	0.831739
1.5990	0.831879
1.6000	0.832018
1.6010	0.832158
1.6020	0.832298
1.6030	0.832437
1.6040	0.832577
1.6050	0.832716
1.6060	0.832855
1.6070	0.832994
1.6080	0.833134
1.6090	0.833273
1.6100	0.833411
1.6110	0.833550
1.6120	0.833689
1.6130	0.833827
1.6140	0.833966
1.6150	0.834104
1.6160	0.834243
1.6170	0.834381
1.6180	0.834519
1.6190	0.834657
1.6200	0.834795
1.6210	0.834933
1.6220	0.835071
1.6230	0.835208
1.6240	0.835346
1.6250	0.835484
1.6260	0.835621
1.6270	0.835758
1.6280	0.835895
1.6290	0.836033
1.6300	0.836170
1.6310	0.836307
1.6320	0.836443
1.6330	0.836580
1.6340	0.836717
1.6350	0.836853
1.6360	0.836990
1.6370	0.837126
1.6380	0.837263
1.6390	0.837399
1.6400	0.837535
1.6410	0.837671
1.6420	0.837807
1.6430	0.837943
1.6440	0.838078
1.6450	0.838214
1.6460	0.838350
1.6470	0.838485
1.6480	0.838621
1.6490	0.838756
1.6500	0.838891
1.6510	0.839026
1.6520	0.839161
1.6530	0.839296
1.6540	0.839431
1.6550	0.839566
1.6560	0.839700
1.6570	0.839835
1.6580	0.839969
1.6590	0.840104
1.6600	0.840238
1.6610	0.840372
1.6620	0.840506
1.6630	0.840640
1.6640	0.840774
1.6650	0.840908
1.6660	0.841042
1.6670	0.841175
1.6680	0.841309
1.6690	0.841442
1.6700	0.841576
1.6710	0.841709
1.6720	0.841842
1.6730	0.841975
1.6740	0.842108
1.6750	0.842241
1.6760	0.842374
1.6770	0.842507
1.6780	0.842640
1.6790	0.842772
1.6800	0.842905
1.6810	0.843037
1.6820	0.843169
1.6830	0.843301
1.6840	0.843433
1.6850	0.843565
1.6860	0.843697
1.6870	0.843829
1.6880	0.843961
1.6890	0.844093
1.6900	0.844224
1.6910	0.844356
1.6920	0.844487
1.6930	0.844618
1.6940	0.844749
1.6950	0.844881
1.6960	0.845012
1.6970	0.845143
1.6980	0.845273
1.6990	0.845404
1.7000	0.845535
1.7010	0.845665
1.7020	0.845796
1.7030	0.845926
1.7040	0.846056
1.7050	0.846187
1.7060	0.846317
1.7070	0.846447
1.7080	0.846577
1.7090	0.846707
1.7100	0.846836
1.7110	0.846966
1.7120	0.847096
1.7130	0.847225
1.7140	0.847354
1.7150	0.847484
1.7160	0.847613
1.7170	0.847742
1.7180	0.847871
1.7190	0.848000
1.7200	0.848129
1.7210	0.848258
1.7220	0.848386
1.7230	0.848515
1.7240	0.848643
1.7250	0.848772
1.7260	0.848900
1.7270	0.849028
1.7280	0.849156
1.7290	0.849284
1.7300	0.849412
1.7310	0.849540
1.7320	0.849668
1.7330	0.849796
1.7340	0.849923
1.7350	0.850051
1.7360	0.850178
1.7370	0.850306
1.7380	0.850433
1.7390	0.850560
1.7400	0.850687
1.7410	0.850814
1.7420	0.850941
1.7430	0.851068
1.7440	0.851194
1.7450	0.851321
1.7460	0.851448
1.7470	0.851574
1.7480	0.851700
1.7490	0.851827
1.7500	0.851953
1.7510	0.852079
1.7520	0.852205
1.7530	0.852331
1.7540	0.852457
1.7550	0.852582
1.7560	0.852708
1.7570	0.852834
1.7580	0.852959
1.7590	0.853084
1.7600	0.853210
1.7610	0.853335
1.7620	0.853460
1.7630	0.853585
1.7640	0.853710
1.7650	0.853835
1.7660	0.853960
1.7670	0.854084
1.7680	0.854209
1.7690	0.854333
1.7700	0.854458
1.7710	0.854582
1.7720	0.854706
1.7730	0.854830
1.7740	0.854954
1.7750	0.855078
1.7760	0.855202
1.7770	0.855326
1.7780	0.855450
1.7790	0.855573
1.7800	0.855697
1.7810	0.855820
1.7820	0.855944
1.7830	0.856067
1.7840	0.856190
1.7850	0.856313
1.7860	0.856436
1.7870	0.856559
1.7880	0.856682
1.7890	0.856805
1.7900	0.856927
1.7910	0.857050
1.7920	0.857172
1.7930	0.857295
1.7940	0.857417
1.7950	0.857539
1.7960	0.857661
1.7970	0.857783
1.7980	0.857905
1.7990	0.858027
1.8000	0.858149
1.8010	0.858271
1.8020	0.858392
1.8030	0.858514
1.8040	0.858635
1.8050	0.858756
1.8060	0.858878
1.8070	0.858999
1.8080	0.859120
1.8090	0.859241
1.8100	0.859362
1.8110	0.859483
1.8120	0.859603
1.8130	0.859724
1.8140	0.859845
1.8150	0.859965
1.8160	0.860085
1.8170	0.860206
1.8180	0.860326
1.8190	0.860446
1.8200	0.860566
1.8210	0.860686
1.8220	0.860806
1.8230	0.860926
1.8240	0.861045
1.8250	0.861165
1.8260	0.861285
1.8270	0.861404
1.8280	0.861523
1.8290	0.861643
1.8300	0.861762
1.8310	0.861881
1.8320	0.862000
1.8330	0.862119
1.8340	0.862238
1.8350	0.862356
1.8360	0.862475
1.8370	0.862594
1.8380	0.862712
1.8390	0.862830
1.8400	0.862949
1.8410	0.863067
1.8420	0.863185
1.8430	0.863303
1.8440	0.863421
1.8450	0.863539
1.8460	0.863657
1.8470	0.863774
1.8480	0.863892
1.8490	0.864010
1.8500	0.864127
1.8510	0.864244
1.8520	0.864362
1.8530	0.864479
1.8540	0.864596
1.8550	0.864713
1.8560	0.864830
1.8570	0.864947
1.8580	0.865064
1.8590	0.865180
1.8600	0.865297
1.8610	0.865413
1.8620	0.865530
1.8630	0.865646
1.8640	0.865762
1.8650	0.865879
1.8660	0.865995
1.8670	0.866111
1.8680	0.866227
1.8690	0.866343
1.8700	0.866458
1.8710	0.866574
1.8720	0.866690
1.8730	0.866805
1.8740	0.866920
1.8750	0.867036
1.8760	0.867151
1.8770	0.867266
1.8780	0.867381
1.8790	0.867496
1.8800	0.867611
1.8810	0.867726
1.8820	0.867841
1.8830	0.867955
1.8840	0.868070
1.8850	0.868184
1.8860	0.868299
1.8870	0.868413
1.8880	0.868527
1.8890	0.868641
1.8900	0.868756
1.8910	0.868870
1.8920	0.868983
1.8930	0.869097
1.8940	0.869211
1.8950	0.869325
1.8960	0.869438
1.8970	0.869552
1.8980	0.869665
1.8990	0.869778
1.9000	0.869892
1.9010	0.870005
1.9020	0.870118
1.9030	0.870231
1.9040	0.870344
1.9050	0.870456
1.9060	0.870569
1.9070	0.870682
1.9080	0.870794
1.9090	0.870907
1.9100	0.871019
1.9110	0.871131
1.9120	0.871244
1.9130	0.871356
1.9140	0.871468
1.9150	0.871580
1.9160	0.871692
1.9170	0.871804
1.9180	0.871915
1.9190	0.872027
1.9200	0.872138
1.9210	0.872250
1.9220	0.872361
1.9230	0.872473
1.9240	0.872584
1.9250	0.872695
1.9260	0.872806
1.9270	0.872917
1.9280	0.873028
1.9290	0.873139
1.9300	0.873249
1.9310	0.873360
1.9320	0.873471
1.9330	0.873581
1.9340	0.873691
1.9350	0.873802
1.9360	0.873912
1.9370	0.874022
1.9380	0.874132
1.9390	0.874242
1.9400	0.874352
1.9410	0.874462
1.9420	0.874572
1.9430	0.874681
1.9440	0.874791
1.9450	0.874900
1.9460	0.875010
1.9470	0.875119
1.9480	0.875228
1.9490	0.875338
1.9500	0.875447
1.9510	0.875556
1.9520	0.875665
1.9530	0.875773
1.9540	0.875882
1.9550	0.875991
1.9560	0.876099
1.9570	0.876208
1.9580	0.876316
1.9590	0.876425
1.9600	0.876533
1.9610	0.876641
1.9620	0.876749
1.9630	0.876857
1.9640	0.876965
1.9650	0.877073
1.9660	0.877181
1.9670	0.877289
1.9680	0.877396
1.9690	0.877504
1.9700	0.877611
1.9710	0.877718
1.9720	0.877826
1.9730	0.877933
1.9740	0.878040
1.9750	0.878147
1.9760	0.878254
1.9770	0.878361
1.9780	0.878468
1.9790	0.878575
1.9800	0.878681
1.9810	0.878788
1.9820	0.878894
1.9830	0.879001
1.9840	0.879107
1.9850	0.879213
1.9860	0.879319
1.9870	0.879425
1.9880	0.879531
1.9890	0.879637
1.9900	0.879743
1.9910	0.879849
1.9920	0.879955
1.9930	0.880060
1.9940	0.880166
1.9950	0.880271
1.9960	0.880376
1.9970	0.880482
1.9980	0.880587
1.9990	0.880692
2.0000	0.880797
2.0010	0.880902
2.0020	0.881007
2.0030	0.881112
2.0040	0.881216
2.0050	0.881321
2.0060	0.881426
2.0070	0.881530
2.0080	0.881634
2.0090	0.881739
2.0100	0.881843
2.0110	0.881947
2.0120	0.882051
2.0130	0.882155
2.0140	0.882259
2.0150	0.882363
2.0160	0.882467
2.0170	0.882570
2.0180	0.882674
2.0190	0.882778
2.0200	0.882881
2.0210	0.882984
2.0220	0.883088
2.0230	0.883191
2.0240	0.883294
2.0250	0.883397
2.0260	0.883500
2.0270	0.883603
2.0280	0.883706
2.0290	0.883808
2.0300	0.883911
2.0310	0.884014
2.0320	0.884116
2.0330	0.884219
2.0340	0.884321
2.0350	0.884423
2.0360	0.884525
2.0370	0.884627
2.0380	0.884729
2.0390	0.884831
2.0400	0.884933
2.0410	0.885035
2.0420	0.885137
2.0430	0.885238
2.0440	0.885340
2.0450	0.885441
2.0460	0.885543
2.0470	0.885644
2.0480	0.885745
2.0490	0.885847
2.0500	0.885948
2.0510	0.886049
2.0520	0.886150
2.0530	0.886250
2.0540	0.886351
2.0550	0.886452
2.0560	0.886552
2.0570	0.886653
2.0580	0.886753
2.0590	0.886854
2.0600	0.886954
2.0610	0.887054
2.0620	0.887155
2.0630	0.887255
2.0640	0.887355
2.0650	0.887455
2.0660	0.887554
2.0670	0.887654
2.0680	0.887754
2.0690	0.887853
2.0700	0.887953
2.0710	0.888052
2.0720	0.888152
2.0730	0.888251
2.0740	0.888350
2.0750	0.888449
2.0760	0.888549
2.0770	0.888648
2.0780	0.888746
2.0790	0.888845
2.0800	0.888944
2.0810	0.889043
2.0820	0.889141
2.0830	0.889240
2.0840	0.889338
2.0850	0.889437
2.0860	0.889535
2.0870	0.889633
2.0880	0.889731
2.0890	0.889829
2.0900	0.889927
2.0910	0.890025
2.0920	0.890123
2.0930	0.890221
2.0940	0.890319
2.0950	0.890416
2.0960	0.890514
2.0970	0.890611
2.0980	0.890709
2.0990	0.890806
2.1000	0.890903
2.1010	0.891000
2.1020	0.891097
2.1030	0.891194
2.1040	0.891291
2.1050	0.891388
2.1060	0.891485
2.1070	0.891582
2.1080	0.891678
2.1090	0.891775
2.1100	0.891871
2.1110	0.891968
2.1120	0.892064
2.1130	0.892160
2.1140	0.892256
2.1150	0.892353
2.1160	0.892449
2.1170	0.892545
2.1180	0.892640
2.1190	0.892736
2.1200	0.892832
2.1210	0.892928
2.1220	0.893023
2.1230	0.893119
2.1240	0.893214
2.1250	0.893309
2.1260	0.893405
2.1270	0.893500
2.1280	0.893595
2.1290	0.893690
2.1300	0.893785
2.1310	0.893880
2.1320	0.893975
2.1330	0.894069
2.1340	0.894164
2.1350	0.894259
2.1360	0.894353
2.1370	0.894448
2.1380	0.894542
2.1390	0.894636
2.1400	0.894731
2.1410	0.894825
2.1420	0.894919
2.1430	0.895013
2.1440	0.895107
2.1450	0.895201
2.1460	0.895294
2.1470	0.895388
2.1480	0.895482
2.1490	0.895575
2.1500	0.895669
2.1510	0.895762
2.1520	0.895856
2.1530	0.895949
2.1540	0.896042
2.1550	0.896135
2.1560	0.896228
2.1570	0.896321
2.1580	0.896414
2.1590	0.896507
2.1600	0.896600
2.1610	0.896692
2.1620	0.896785
2.1630	0.896877
2.1640	0.896970
2.1650	0.897062
2.1660	0.897154
2.1670	0.897247
2.1680	0.897339
2.1690	0.897431
2.1700	0.897523
2.1710	0.897615
2.1720	0.897707
2.1730	0.897799
2.1740	0.897890
2.1750	0.897982
2.1760	0.898074
2.1770	0.898165
2.1780	0.898256
2.1790	0.898348
2.1800	0.898439
2.1810	0.898530
2.1820	0.898621
2.1830	0.898712
2.1840	0.898803
2.1850	0.898894
2.1860	0.898985
2.1870	0.899076
2.1880	0.899167
2.1890	0.899257
2.1900	0.899348
2.1910	0.899438
2.1920	0.899529
2.1930	0.899619
2.1940	0.899709
2.1950	0.899800
2.1960	0.899890
2.1970	0.899980
2.1980	0.900070
2.1990	0.900160
2.2000	0.900250
2.2010	0.900339
2.2020	0.900429
2.2030	0.900519
2.2040	0.900608
2.2050	0.900698
2.2060	0.900787
2.2070	0.900876
2.2080	0.900966
2.2090	0.901055
2.2100	0.901144
2.2110	0.901233
2.2120	0.901322
2.2130	0.901411
2.2140	0.901500
2.2150	0.901588
2.2160	0.901677
2.2170	0.901766
2.2180	0.901854
2.2190	0.901943
2.2200	0.902031
2.2210	0.902120
2.2220	0.902208
2.2230	0.902296
2.2240	0.902384
2.2250	0.902472
2.2260	0.902560
2.2270	0.902648
2.2280	0.902736
2.2290	0.902824
2.2300	0.902911
2.2310	0.902999
2.2320	0.903087
2.2330	0.903174
2.2340	0.903261
2.2350	0.903349
2.2360	0.903436
2.2370	0.903523
2.2380	0.903610
2.2390	0.903697
2.2400	0.903784
2.2410	0.903871
2.2420	0.903958
2.2430	0.904045
2.2440	0.904132
2.2450	0.904218
2.2460	0.904305
2.2470	0.904391
2.2480	0.904478
2.2490	0.904564
2.2500	0.904651
2.2510	0.904737
2.2520	0.904823
2.2530	0.904909
2.2540	0.904995
2.2550	0.905081
2.2560	0.905167
2.2570	0.905253
2.2580	0.905338
2.2590	0.905424
2.2600	0.905510
2.2610	0.905595
2.2620	0.905681
2.2630	0.905766
2.2640	0.905851
2.2650	0.905937
2.2660	0.906022
2.2670	0.906107
2.2680	0.906192
2.2690	0.906277
2.2700	0.906362
2.2710	0.906447
2.2720	0.906531
2.2730	0.906616
2.2740	0.906701
2.2750	0.906785
2.2760	0.906870
2.2770	0.906954
2.2780	0.907039
2.2790	0.907123
2.2800	0.907207
2.2810	0.907291
2.2820	0.907375
2.2830	0.907459
2.2840	0.907543
2.2850	0.907627
2.2860	0.907711
2.2870	0.907795
2.2880	0.907878
2.2890	0.907962
2.2900	0.908045
2.2910	0.908129
2.2920	0.908212
2.2930	0.908296
2.2940	0.908379
2.2950	0.908462
2.2960	0.908545
2.2970	0.908628
2.2980	0.908711
2.2990	0.908794
2.3000	0.908877
2.3010	0.908960
2.3020	0.909043
2.3030	0.909125
2.3040	0.909208
2.3050	0.909290
2.3060	0.909373
2.3070	0.909455
2.3080	0.909537
2.3090	0.909620
2.3100	0.909702
2.3110	0.909784
2.3120	0.909866
2.3130	0.909948
2.3140	0.910030
2.3150	0.910112
2.3160	0.910194
2.3170	0.910275
2.3180	0.910357
2.3190	0.910438
2.3200	0.910520
2.3210	0.910601
2.3220	0.910683
2.3230	0.910764
2.3240	0.910845
2.3250	0.910926
2.3260	0.911008
2.3270	0.911089
2.3280	0.911170
2.3290	0.911250
2.3300	0.911331
2.3310	0.911412
2.3320	0.911493
2.3330	0.911573
2.3340	0.911654
2.3350	0.911735
2.3360	0.911815
2.3370	0.911895
2.3380	0.911976
2.3390	0.912056
2.3400	0.912136
2.3410	0.912216
2.3420	0.912296
2.3430	0.912376
2.3440	0.912456
2.3450	0.912536
2.3460	0.912616
2.3470	0.912695
2.3480	0.912775
2.3490	0.912855
2.3500	0.912934
2.3510	0.913014
2.3520	0.913093
2.3530	0.913172
2.3540	0.913252
2.3550	0.913331
2.3560	0.913410
2.3570	0.913489
2.3580	0.913568
2.3590	0.913647
2.3600	0.913726
2.3610	0.913805
2.3620	0.913883
2.3630	0.913962
2.3640	0.914041
2.3650	0.914119
2.3660	0.914198
2.3670	0.914276
2.3680	0.914354
2.3690	0.914433
2.3700	0.914511
2.3710	0.914589
2.3720	0.914667
2.3730	0.914745
2.3740	0.914823
2.3750	0.914901
2.3760	0.914979
2.3770	0.915057
2.3780	0.915134
2.3790	0.915212
2.3800	0.915289
2.3810	0.915367
2.3820	0.915444
2.3830	0.915522
2.3840	0.915599
2.3850	0.915676
2.3860	0.915753
2.3870	0.915831
2.3880	0.915908
2.3890	0.915985
2.3900	0.916062
2.3910	0.916138
2.3920	0.916215
2.3930	0.916292
2.3940	0.916369
2.3950	0.916445
2.3960	0.916522
2.3970	0.916598
2.3980	0.916675
2.3990	0.916751
2.4000	0.916827
2.4010	0.916904
2.4020	0.916980
2.4030	0.917056
2.4040	0.917132
2.4050	0.917208
2.4060	0.917284
2.4070	0.917360
2.4080	0.917435
2.4090	0.917511
2.4100	0.917587
2.4110	0.917662
2.4120	0.917738
2.4130	0.917813
2.4140	0.917889
2.4150	0.917964
2.4160	0.918039
2.4170	0.918114
2.4180	0.918190
2.4190	0.918265
2.4200	0.918340
2.4210	0.918415
2.4220	0.918490
2.4230	0.918564
2.4240	0.918639
2.4250	0.918714
2.4260	0.918789
2.4270	0.918863
2.4280	0.918938
2.4290	0.919012
2.4300	0.919087
2.4310	0.919161
2.4320	0.919235
2.4330	0.919309
2.4340	0.919384
2.4350	0.919458
2.4360	0.919532
2.4370	0.919606
2.4380	0.919679
2.4390	0.919753
2.4400	0.919827
2.4410	0.919901
2.4420	0.919974
2.4430	0.920048
2.4440	0.920122
2.4450	0.920195
2.4460	0.920268
2.4470	0.920342
2.4480	0.920415
2.4490	0.920488
2.4500	0.920561
2.4510	0.920635
2.4520	0.920708
2.4530	0.920781
2.4540	0.920853
2.4550	0.920926
2.4560	0.920999
2.4570	0.921072
2.4580	0.921145
2.4590	0.921217
2.4600	0.921290
2.4610	0.921362
2.4620	0.921435
2.4630	0.921507
2.4640	0.921579
2.4650	0.921651
2.4660	0.921724
2.4670	0.921796
2.4680	0.921868
2.4690	0.921940
2.4700	0.922012
2.4710	0.922084
2.4720	0.922155
2.4730	0.922227
2.4740	0.922299
2.4750	0.922371
2.4760	0.922442
2.4770	0.922514
2.4780	0.922585
2.4790	0.922656
2.4800	0.922728
2.4810	0.922799
2.4820	0.922870
2.4830	0.922941
2.4840	0.923013
2.4850	0.923084
2.4860	0.923155
2.4870	0.923225
2.4880	0.923296
2.4890	0.923367
2.4900	0.923438
2.4910	0.923508
2.4920	0.923579
2.4930	0.923650
2.4940	0.923720
2.4950	0.923791
2.4960	0.923861
2.4970	0.923931
2.4980	0.924001
2.4990	0.924072
2.5000	0.924142
2.5010	0.924212
2.5020	0.924282
2.5030	0.924352
2.5040	0.924422
2.5050	0.924492
2.5060	0.924561
2.5070	0.924631
2.5080	0.924701
2.5090	0.924770
2.5100	0.924840
2.5110	0.924909
2.5120	0.924979
2.5130	0.925048
2.5140	0.925117
2.5150	0.925187
2.5160	0.925256
2.5170	0.925325
2.5180	0.925394
2.5190	0.925463
2.5200	0.925532
2.5210	0.925601
2.5220	0.925670
2.5230	0.925739
2.5240	0.925807
2.5250	0.925876
2.5260	0.925945
2.5270	0.926013
2.5280	0.926082
2.5290	0.926150
2.5300	0.926218
2.5310	0.926287
2.5320	0.926355
2.5330	0.926423
2.5340	0.926491
2.5350	0.926559
2.5360	0.926627
2.5370	0.926695
2.5380	0.926763
2.5390	0.926831
2.5400	0.926899
2.5410	0.926967
2.5420	0.927034
2.5430	0.927102
2.5440	0.927169
2.5450	0.927237
2.5460	0.927304
2.5470	0.927372
2.5480	0.927439
2.5490	0.927506
2.5500	0.927574
2.5510	0.927641
2.5520	0.927708
2.5530	0.927775
2.5540	0.927842
2.5550	0.927909
2.5560	0.927976
2.5570	0.928042
2.5580	0.928109
2.5590	0.928176
2.5600	0.928242
2.5610	0.928309
2.5620	0.928376
2.5630	0.928442
2.5640	0.928508
2.5650	0.928575
2.5660	0.928641
2.5670	0.928707
2.5680	0.928774
2.5690	0.928840
2.5700	0.928906
2.5710	0.928972
2.5720	0.929038
2.5730	0.929104
2.5740	0.929169
2.5750	0.929235
2.5760	0.929301
2.5770	0.929367
2.5780	0.929432
2.5790	0.929498
2.5800	0.929563
2.5810	0.929629
2.5820	0.929694
2.5830	0.929759
2.5840	0.929825
2.5850	0.929890
2.5860	0.929955
2.5870	0.930020
2.5880	0.930085
2.5890	0.930150
2.5900	0.930215
2.5910	0.930280
2.5920	0.930345
2.5930	0.930410
2.5940	0.930474
2.5950	0.930539
2.5960	0.930604
2.5970	0.930668
2.5980	0.930733
2.5990	0.930797
2.6000	0.930862
2.6010	0.930926
2.6020	0.930990
2.6030	0.931054
2.6040	0.931119
2.6050	0.931183
2.6060	0.931247
2.6070	0.931311
2.6080	0.931375
2.6090	0.931439
2.6100	0.931502
2.6110	0.931566
2.6120	0.931630
2.6130	0.931694
2.6140	0.931757
2.6150	0.931821
2.6160	0.931884
2.6170	0.931948
2.6180	0.932011
2.6190	0.932074
2.6200	0.932138
2.6210	0.932201
2.6220	0.932264
2.6230	0.932327
2.6240	0.932390
2.6250	0.932453
2.6260	0.932516
2.6270	0.932579
2.6280	0.932642
2.6290	0.932705
2.6300	0.932768
2.6310	0.932830
2.6320	0.932893
2.6330	0.932955
2.6340	0.933018
2.6350	0.933080
2.6360	0.933143
2.6370	0.933205
2.6380	0.933268
2.6390	0.933330
2.6400	0.933392
2.6410	0.933454
2.6420	0.933516
2.6430	0.933578
2.6440	0.933640
2.6450	0.933702
2.6460	0.933764
2.6470	0.933826
2.6480	0.933888
2.6490	0.933949
2.6500	0.934011
2.6510	0.934073
2.6520	0.934134
2.6530	0.934196
2.6540	0.934257
2.6550	0.934318
2.6560	0.934380
2.6570	0.934441
2.6580	0.934502
2.6590	0.934564
2.6600	0.934625
2.6610	0.934686
2.6620	0.934747
2.6630	0.934808
2.6640	0.934869
2.6650	0.934930
2.6660	0.934990
2.6670	0.935051
2.6680	0.935112
2.6690	0.935172
2.6700	0.935233
2.6710	0.935294
2.6720	0.935354
2.6730	0.935415
2.6740	0.935475
2.6750	0.935535
2.6760	0.935596
2.6770	0.935656
2.6780	0.935716
2.6790	0.935776
2.6800	0.935836
2.6810	0.935896
2.6820	0.935956
2.6830	0.936016
2.6840	0.936076
2.6850	0.936136
2.6860	0.936195
2.6870	0.936255
2.6880	0.936315
2.6890	0.936374
2.6900	0.936434
2.6910	0.936493
2.6920	0.936553
2.6930	0.936612
2.6940	0.936672
2.6950	0.936731
2.6960	0.936790
2.6970	0.936849
2.6980	0.936909
2.6990	0.936968
2.7000	0.937027
2.7010	0.937086
2.7020	0.937145
2.7030	0.937203
2.7040	0.937262
2.7050	0.937321
2.7060	0.937380
2.7070	0.937438
2.7080	0.937497
2.7090	0.937556
2.7100	0.937614
2.7110	0.937673
2.7120	0.937731
2.7130	0.937789
2.7140	0.937848
2.7150	0.937906
2.7160	0.937964
2.7170	0.938022
2.7180	0.938080
2.7190	0.938139
2.7200	0.938197
2.7210	0.938254
2.7220	0.938312
2.7230	0.938370
2.7240	0.938428
2.7250	0.938486
2.7260	0.938544
2.7270	0.938601
2.7280	0.938659
2.7290	0.938716
2.7300	0.938774
2.7310	0.938831
2.7320	0.938889
2.7330	0.938946
2.7340	0.939003
2.7350	0.939061
2.7360	0.939118
2.7370	0.939175
2.7380	0.939232
2.7390	0.939289
2.7400	0.939346
2.7410	0.939403
2.7420	0.939460
2.7430	0.939517
2.7440	0.939574
2.7450	0.939630
2.7460	0.939687
2.7470	0.939744
2.7480	0.939800
2.7490	0.939857
2.7500	0.939913
2.7510	0.939970
2.7520	0.940026
2.7530	0.940083
2.7540	0.940139
2.7550	0.940195
2.7560	0.940251
2.7570	0.940307
2.7580	0.940364
2.7590	0.940420
2.7600	0.940476
2.7610	0.940532
2.7620	0.940587
2.7630	0.940643
2.7640	0.940699
2.7650	0.940755
2.7660	0.940811
2.7670	0.940866
2.7680	0.940922
2.7690	0.940977
2.7700	0.941033
2.7710	0.941088
2.7720	0.941144
2.7730	0.941199
2.7740	0.941255
2.7750	0.941310
2.7760	0.941365
2.7770	0.941420
2.7780	0.941475
2.7790	0.941530
2.7800	0.941585
2.7810	0.941640
2.7820	0.941695
2.7830	0.941750
2.7840	0.941805
2.7850	0.941860
2.7860	0.941915
2.7870	0.941969
2.7880	0.942024
2.7890	0.942079
2.7900	0.942133
2.7910	0.942188
2.7920	0.942242
2.7930	0.942296
2.7940	0.942351
2.7950	0.942405
2.7960	0.942459
2.7970	0.942513
2.7980	0.942568
2.7990	0.942622
2.8000	0.942676
2.8010	0.942730
2.8020	0.942784
2.8030	0.942838
2.8040	0.942892
2.8050	0.942945
2.8060	0.942999
2.8070	0.943053
2.8080	0.943107
2.8090	0.943160
2.8100	0.943214
2.8110	0.943267
2.8120	0.943321
2.8130	0.943374
2.8140	0.943428
2.8150	0.943481
2.8160	0.943534
2.8170	0.943588
2.8180	0.943641
2.8190	0.943694
2.8200	0.943747
2.8210	0.943800
2.8220	0.943853
2.8230	0.943906
2.8240	0.943959
2.8250	0.944012
2.8260	0.944065
2.8270	0.944118
2.8280	0.944170
2.8290	0.944223
2.8300	0.944276
2.8310	0.944328
2.8320	0.944381
2.8330	0.944433
2.8340	0.944486
2.8350	0.944538
2.8360	0.944590
2.8370	0.944643
2.8380	0.944695
2.8390	0.944747
2.8400	0.944799
2.8410	0.944852
2.8420	0.944904
2.8430	0.944956
2.8440	0.945008
2.8450	0.945060
2.8460	0.945112
2.8470	0.945163
2.8480	0.945215
2.8490	0.945267
2.8500	0.945319
2.8510	0.945370
2.8520	0.945422
2.8530	0.945474
2.8540	0.945525
2.8550	0.945577
2.8560	0.945628
2.8570	0.945679
2.8580	0.945731
2.8590	0.945782
2.8600	0.945833
2.8610	0.945885
2.8620	0.945936
2.8630	0.945987
2.8640	0.946038
2.8650	0.946089
2.8660	0.946140
2.8670	0.946191
2.8680	0.946242
2.8690	0.946293
2.8700	0.946343
2.8710	0.946394
2.8720	0.946445
2.8730	0.946495
2.8740	0.946546
2.8750	0.946597
2.8760	0.946647
2.8770	0.946698
2.8780	0.946748
2.8790	0.946799
2.8800	0.946849
2.8810	0.946899
2.8820	0.946949
2.8830	0.947000
2.8840	0.947050
2.8850	0.947100
2.8860	0.947150
2.8870	0.947200
2.8880	0.947250
2.8890	0.947300
2.8900	0.947350
2.8910	0.947400
2.8920	0.947450
2.8930	0.947499
2.8940	0.947549
2.8950	0.947599
2.8960	0.947648
2.8970	0.947698
2.8980	0.947747
2.8990	0.947797
2.9000	0.947846
2.9010	0.947896
2.9020	0.947945
2.9030	0.947995
2.9040	0.948044
2.9050	0.948093
2.9060	0.948142
2.9070	0.948191
2.9080	0.948240
2.9090	0.948290
2.9100	0.948339
2.9110	0.948388
2.9120	0.948436
2.9130	0.948485
2.9140	0.948534
2.9150	0.948583
2.9160	0.948632
2.9170	0.948680
2.9180	0.948729
2.9190	0.948778
2.9200	0.948826
2.9210	0.948875
2.9220	0.948923
2.9230	0.948972
2.9240	0.949020
2.9250	0.949069
2.9260	0.949117
2.9270	0.949165
2.9280	0.949213
2.9290	0.949262
2.9300	0.949310
2.9310	0.949358
2.9320	0.949406
2.9330	0.949454
2.9340	0.949502
2.9350	0.949550
2.9360	0.949598
2.9370	0.949645
2.9380	0.949693
2.9390	0.949741
2.9400	0.949789
2.9410	0.949836
2.9420	0.949884
2.9430	0.949932
2.9440	0.949979
2.9450	0.950027
2.9460	0.950074
2.9470	0.950122
2.9480	0.950169
2.9490	0.950216
2.9500	0.950263
2.9510	0.950311
2.9520	0.950358
2.9530	0.950405
2.9540	0.950452
2.9550	0.950499
2.9560	0.950546
2.9570	0.950593
2.9580	0.950640
2.9590	0.950687
2.9600	0.950734
2.9610	0.950781
2.9620	0.950828
2.9630	0.950874
2.9640	0.950921
2.9650	0.950968
2.9660	0.951014
2.9670	0.951061
2.9680	0.951107
2.9690	0.951154
2.9700	0.951200
2.9710	0.951247
2.9720	0.951293
2.9730	0.951339
2.9740	0.951386
2.9750	0.951432
2.9760	0.951478
2.9770	0.951524
2.9780	0.951570
2.9790	0.951616
2.9800	0.951662
2.9810	0.951708
2.9820	0.951754
2.9830	0.951800
2.9840	0.951846
2.9850	0.951892
2.9860	0.951938
2.9870	0.951983
2.9880	0.952029
2.9890	0.952075
2.9900	0.952120
2.9910	0.952166
2.9920	0.952211
2.9930	0.952257
2.9940	0.952302
2.9950	0.952348
2.9960	0.952393
2.9970	0.952438
2.9980	0.952484
2.9990	0.952529
3.0000	0.952574
3.0010	0.952619
3.0020	0.952664
3.0030	0.952709
3.0040	0.952755
3.0050	0.952799
3.0060	0.952844
3.0070	0.952889
3.0080	0.952934
3.0090	0.952979
3.0100	0.953024
3.0110	0.953069
3.0120	0.953113
3.0130	0.953158
3.0140	0.953203
3.0150	0.953247
3.0160	0.953292
3.0170	0.953336
3.0180	0.953381
3.0190	0.953425
3.0200	0.953470
3.0210	0.953514
3.0220	0.953558
3.0230	0.953602
3.0240	0.953647
3.0250	0.953691
3.0260	0.953735
3.0270	0.953779
3.0280	0.953823
3.0290	0.953867
3.0300	0.953911
3.0310	0.953955
3.0320	0.953999
3.0330	0.954043
3.0340	0.954087
3.0350	0.954130
3.0360	0.954174
3.0370	0.954218
3.0380	0.954262
3.0390	0.954305
3.0400	0.954349
3.0410	0.954392
3.0420	0.954436
3.0430	0.954479
3.0440	0.954523
3.0450	0.954566
3.0460	0.954610
3.0470	0.954653
3.0480	0.954696
3.0490	0.954739
3.0500	0.954783
3.0510	0.954826
3.0520	0.954869
3.0530	0.954912
3.0540	0.954955
3.0550	0.954998
3.0560	0.955041
3.0570	0.955084
3.0580	0.955127
3.0590	0.955169
3.0600	0.955212
3.0610	0.955255
3.0620	0.955298
3.0630	0.955340
3.0640	0.955383
3.0650	0.955426
3.0660	0.955468
3.0670	0.955511
3.0680	0.955553
3.0690	0.955596
3.0700	0.955638
3.0710	0.955681
3.0720	0.955723
3.0730	0.955765
3.0740	0.955807
3.0750	0.955850
3.0760	0.955892
3.0770	0.955934
3.0780	0.955976
3.0790	0.956018
3.0800	0.956060
3.0810	0.956102
3.0820	0.956144
3.0830	0.956186
3.0840	0.956228
3.0850	0.956270
3.0860	0.956312
3.0870	0.956353
3.0880	0.956395
3.0890	0.956437
3.0900	0.956478
3.0910	0.956520
3.0920	0.956562
3.0930	0.956603
3.0940	0.956645
3.0950	0.956686
3.0960	0.956727
3.0970	0.956769
3.0980	0.956810
3.0990	0.956851
3.1000	0.956893
3.1010	0.956934
3.1020	0.956975
3.1030	0.957016
3.1040	0.957057
3.1050	0.957099
3.1060	0.957140
3.1070	0.957181
3.1080	0.957222
3.1090	0.957262
3.1100	0.957303
3.1110	0.957344
3.1120	0.957385
3.1130	0.957426
3.1140	0.957467
3.1150	0.957507
3.1160	0.957548
3.1170	0.957589
3.1180	0.957629
3.1190	0.957670
3.1200	0.957710
3.1210	0.957751
3.1220	0.957791
3.1230	0.957832
3.1240	0.957872
3.1250	0.957912
3.1260	0.957953
3.1270	0.957993
3.1280	0.958033
3.1290	0.958073
3.1300	0.958113
3.1310	0.958154
3.1320	0.958194
3.1330	0.958234
3.1340	0.958274
3.1350	0.958314
3.1360	0.958354
3.1370	0.958393
3.1380	0.958433
3.1390	0.958473
3.1400	0.958513
3.1410	0.958553
3.1420	0.958592
3.1430	0.958632
3.1440	0.958672
3.1450	0.958711
3.1460	0.958751
3.1470	0.958790
3.1480	0.958830
3.1490	0.958869
3.1500	0.958909
3.1510	0.958948
3.1520	0.958987
3.1530	0.959027
3.1540	0.959066
3.1550	0.959105
3.1560	0.959144
3.1570	0.959184
3.1580	0.959223
3.1590	0.959262
3.1600	0.959301
3.1610	0.959340
3.1620	0.959379
3.1630	0.959418
3.1640	0.959457
3.1650	0.959496
3.1660	0.959535
3.1670	0.959573
3.1680	0.959612
3.1690	0.959651
3.1700	0.959690
3.1710	0.959728
3.1720	0.959767
3.1730	0.959805
3.1740	0.959844
3.1750	0.959883
3.1760	0.959921
3.1770	0.959960
3.1780	0.959998
3.1790	0.960036
3.1800	0.960075
3.1810	0.960113
3.1820	0.960151
3.1830	0.960190
3.1840	0.960228
3.1850	0.960266
3.1860	0.960304
3.1870	0.960342
3.1880	0.960380
3.1890	0.960418
3.1900	0.960456
3.1910	0.960494
3.1920	0.960532
3.1930	0.960570
3.1940	0.960608
3.1950	0.960646
3.1960	0.960683
3.1970	0.960721
3.1980	0.960759
3.1990	0.960797
3.2000	0.960834
3.2010	0.960872
3.2020	0.960909
3.2030	0.960947
3.2040	0.960985
3.2050	0.961022
3.2060	0.961059
3.2070	0.961097
3.2080	0.961134
3.2090	0.961172
3.2100	0.961209
3.2110	0.961246
3.2120	0.961283
3.2130	0.961321
3.2140	0.961358
3.2150	0.961395
3.2160	0.961432
3.2170	0.961469
3.2180	0.961506
3.2190	0.961543
3.2200	0.961580
3.2210	0.961617
3.2220	0.961654
3.2230	0.961691
3.2240	0.961728
3.2250	0.961764
3.2260	0.961801
3.2270	0.961838
3.2280	0.961874
3.2290	0.961911
3.2300	0.961948
3.2310	0.961984
3.2320	0.962021
3.2330	0.962057
3.2340	0.962094
3.2350	0.962130
3.2360	0.962167
3.2370	0.962203
3.2380	0.962240
3.2390	0.962276
3.2400	0.962312
3.2410	0.962348
3.2420	0.962385
3.2430	0.962421
3.2440	0.962457
3.2450	0.962493
3.2460	0.962529
3.2470	0.962565
3.2480	0.962601
3.2490	0.962637
3.2500	0.962673
3.2510	0.962709
3.2520	0.962745
3.2530	0.962781
3.2540	0.962817
3.2550	0.962852
3.2560	0.962888
3.2570	0.962924
3.2580	0.962960
3.2590	0.962995
3.2600	0.963031
3.2610	0.963066
3.2620	0.963102
3.2630	0.963137
3.2640	0.963173
3.2650	0.963208
3.2660	0.963244
3.2670	0.963279
3.2680	0.963315
3.2690	0.963350
3.2700	0.963385
3.2710	0.963420
3.2720	0.963456
3.2730	0.963491
3.2740	0.963526
3.2750	0.963561
3.2760	0.963596
3.2770	0.963631
3.2780	0.963666
3.2790	0.963701
3.2800	0.963736
3.2810	0.963771
3.2820	0.963806
3.2830	0.963841
3.2840	0.963876
3.2850	0.963911
3.2860	0.963945
3.2870	0.963980
3.2880	0.964015
3.2890	0.964050
3.2900	0.964084
3.2910	0.964119
3.2920	0.964153
3.2930	0.964188
3.2940	0.964222
3.2950	0.964257
3.2960	0.964291
3.2970	0.964326
3.2980	0.964360
3.2990	0.964394
3.3000	0.964429
3.3010	0.964463
3.3020	0.964497
3.3030	0.964532
3.3040	0.964566
3.3050	0.964600
3.3060	0.964634
3.3070	0.964668
3.3080	0.964702
3.3090	0.964736
3.3100	0.964770
3.3110	0.964804
3.3120	0.964838
3.3130	0.964872
3.3140	0.964906
3.3150	0.964940
3.3160	0.964974
3.3170	0.965007
3.3180	0.965041
3.3190	0.965075
3.3200	0.965109
3.3210	0.965142
3.3220	0.965176
3.3230	0.965209
3.3240	0.965243
3.3250	0.965277
3.3260	0.965310
3.3270	0.965344
3.3280	0.965377
3.3290	0.965410
3.3300	0.965444
3.3310	0.965477
3.3320	0.965510
3.3330	0.965544
3.3340	0.965577
3.3350	0.965610
3.3360	0.965643
3.3370	0.965677
3.3380	0.965710
3.3390	0.965743
3.3400	0.965776
3.3410	0.965809
3.3420	0.965842
3.3430	0.965875
3.3440	0.965908
3.3450	0.965941
3.3460	0.965974
3.3470	0.966006
3.3480	0.966039
3.3490	0.966072
3.3500	0.966105
3.3510	0.966138
3.3520	0.966170
3.3530	0.966203
3.3540	0.966236
3.3550	0.966268
3.3560	0.966301
3.3570	0.966333
3.3580	0.966366
3.3590	0.966398
3.3600	0.966431
3.3610	0.966463
3.3620	0.966496
3.3630	0.966528
3.3640	0.966560
3.3650	0.966593
3.3660	0.966625
3.3670	0.966657
3.3680	0.966689
3.3690	0.966722
3.3700	0.966754
3.3710	0.966786
3.3720	0.966818
3.3730	0.966850
3.3740	0.966882
3.3750	0.966914
3.3760	0.966946
3.3770	0.966978
3.3780	0.967010
3.3790	0.967042
3.3800	0.967074
3.3810	0.967105
3.3820	0.967137
3.3830	0.967169
3.3840	0.967201
3.3850	0.967232
3.3860	0.967264
3.3870	0.967296
3.3880	0.967327
3.3890	0.967359
3.3900	0.967391
3.3910	0.967422
3.3920	0.967454
3.3930	0.967485
3.3940	0.967516
3.3950	0.967548
3.3960	0.967579
3.3970	0.967611
3.3980	0.967642
3.3990	0.967673
3.4000	0.967705
3.4010	0.967736
3.4020	0.967767
3.4030	0.967798
3.4040	0.967829
3.4050	0.967860
3.4060	0.967892
3.4070	0.967923
3.4080	0.967954
3.4090	0.967985
3.4100	0.968016
3.4110	0.968047
3.4120	0.968077
3.4130	0.968108
3.4140	0.968139
3.4150	0.968170
3.4160	0.968201
3.4170	0.968232
3.4180	0.968262
3.4190	0.968293
3.4200	0.968324
3.4210	0.968354
3.4220	0.968385
3.4230	0.968416
3.4240	0.968446
3.4250	0.968477
3.4260	0.968507
3.4270	0.968538
3.4280	0.968568
3.4290	0.968599
3.4300	0.968629
3.4310	0.968659
3.4320	0.968690
3.4330	0.968720
3.4340	0.968750
3.4350	0.968781
3.4360	0.968811
3.4370	0.968841
3.4380	0.968871
3.4390	0.968901
3.4400	0.968932
3.4410	0.968962
3.4420	0.968992
3.4430	0.969022
3.4440	0.969052
3.4450	0.969082
3.4460	0.969112
3.4470	0.969142
3.4480	0.969171
3.4490	0.969201
3.4500	0.969231
3.4510	0.969261
3.4520	0.969291
3.4530	0.969320
3.4540	0.969350
3.4550	0.969380
3.4560	0.969410
3.4570	0.969439
3.4580	0.969469
3.4590	0.969498
3.4600	0.969528
3.4610	0.969557
3.4620	0.969587
3.4630	0.969616
3.4640	0.969646
3.4650	0.969675
3.4660	0.969705
3.4670	0.969734
3.4680	0.969763
3.4690	0.969793
3.4700	0.969822
3.4710	0.969851
3.4720	0.969880
3.4730	0.969910
3.4740	0.969939
3.4750	0.969968
3.4760	0.969997
3.4770	0.970026
3.4780	0.970055
3.4790	0.970084
3.4800	0.970113
3.4810	0.970142
3.4820	0.970171
3.4830	0.970200
3.4840	0.970229
3.4850	0.970258
3.4860	0.970287
3.4870	0.970316
3.4880	0.970344
3.4890	0.970373
3.4900	0.970402
3.4910	0.970431
3.4920	0.970459
3.4930	0.970488
3.4940	0.970517
3.4950	0.970545
3.4960	0.970574
3.4970	0.970602
3.4980	0.970631
3.4990	0.970659
3.5000	0.970688
3.5010	0.970716
3.5020	0.970745
3.5030	0.970773
3.5040	0.970801
3.5050	0.970830
3.5060	0.970858
3.5070	0.970886
3.5080	0.970915
3.5090	0.970943
3.5100	0.970971
3.5110	0.970999
3.5120	0.971027
3.5130	0.971055
3.5140	0.971083
3.5150	0.971112
3.5160	0.971140
3.5170	0.971168
3.5180	0.971196
3.5190	0.971224
3.5200	0.971252
3.5210	0.971279
3.5220	0.971307
3.5230	0.971335
3.5240	0.971363
3.5250	0.971391
3.5260	0.971419
3.5270	0.971446
3.5280	0.971474
3.5290	0.971502
3.5300	0.971529
3.5310	0.971557
3.5320	0.971585
3.5330	0.971612
3.5340	0.971640
3.5350	0.971667
3.5360	0.971695
3.5370	0.971722
3.5380	0.971750
3.5390	0.971777
3.5400	0.971805
3.5410	0.971832
3.5420	0.971859
3.5430	0.971887
3.5440	0.971914
3.5450	0.971941
3.5460	0.971969
3.5470	0.971996
3.5480	0.972023
3.5490	0.972050
3.5500	0.972077
3.5510	0.972105
3.5520	0.972132
3.5530	0.972159
3.5540	0.972186
3.5550	0.972213
3.5560	0.972240
3.5570	0.972267
3.5580	0.972294
3.5590	0.972321
3.5600	0.972348
3.5610	0.972374
3.5620	0.972401
3.5630	0.972428
3.5640	0.972455
3.5650	0.972482
3.5660	0.972508
3.5670	0.972535
3.5680	0.972562
3.5690	0.972589
3.5700	0.972615
3.5710	0.972642
3.5720	0.972668
3.5730	0.972695
3.5740	0.972722
3.5750	0.972748
3.5760	0.972775
3.5770	0.972801
3.5780	0.972827
3.5790	0.972854
3.5800	0.972880
3.5810	0.972907
3.5820	0.972933
3.5830	0.972959
3.5840	0.972986
3.5850	0.973012
3.5860	0.973038
3.5870	0.973064
3.5880	0.973091
3.5890	0.973117
3.5900	0.973143
3.5910	0.973169
3.5920	0.973195
3.5930	0.973221
3.5940	0.973247
3.5950	0.973273
3.5960	0.973299
3.5970	0.973325
3.5980	0.973351
3.5990	0.973377
3.6000	0.973403
3.6010	0.973429
3.6020	0.973455
3.6030	0.973481
3.6040	0.973506
3.6050	0.973532
3.6060	0.973558
3.6070	0.973584
3.6080	0.973609
3.6090	0.973635
3.6100	0.973661
3.6110	0.973686
3.6120	0.973712
3.6130	0.973738
3.6140	0.973763
3.6150	0.973789
3.6160	0.973814
3.6170	0.973840
3.6180	0.973865
3.6190	0.973891
3.6200	0.973916
3.6210	0.973941
3.6220	0.973967
3.6230	0.973992
3.6240	0.974017
3.6250	0.974043
3.6260	0.974068
3.6270	0.974093
3.6280	0.974118
3.6290	0.974144
3.6300	0.974169
3.6310	0.974194
3.6320	0.974219
3.6330	0.974244
3.6340	0.974269
3.6350	0.974294
3.6360	0.974319
3.6370	0.974344
3.6380	0.974369
3.6390	0.974394
3.6400	0.974419
3.6410	0.974444
3.6420	0.974469
3.6430	0.974494
3.6440	0.974519
3.6450	0.974544
3.6460	0.974568
3.6470	0.974593
3.6480	0.974618
3.6490	0.974643
3.6500	0.974667
3.6510	0.974692
3.6520	0.974717
3.6530	0.974741
3.6540	0.974766
3.6550	0.974790
3.6560	0.974815
3.6570	0.974840
3.6580	0.974864
3.6590	0.974889
3.6600	0.974913
3.6610	0.974937
3.6620	0.974962
3.6630	0.974986
3.6640	0.975011
3.6650	0.975035
3.6660	0.975059
3.6670	0.975084
3.6680	0.975108
3.6690	0.975132
3.6700	0.975156
3.6710	0.975181
3.6720	0.975205
3.6730	0.975229
3.6740	0.975253
3.6750	0.975277
3.6760	0.975301
3.6770	0.975325
3.6780	0.975350
3.6790	0.975374
3.6800	0.975398
3.6810	0.975422
3.6820	0.975446
3.6830	0.975469
3.6840	0.975493
3.6850	0.975517
3.6860	0.975541
3.6870	0.975565
3.6880	0.975589
3.6890	0.975613
3.6900	0.975636
3.6910	0.975660
3.6920	0.975684
3.6930	0.975708
3.6940	0.975731
3.6950	0.975755
3.6960	0.975779
3.6970	0.975802
3.6980	0.975826
3.6990	0.975849
3.7000	0.975873
3.7010	0.975897
3.7020	0.975920
3.7030	0.975944
3.7040	0.975967
3.7050	0.975990
3.7060	0.976014
3.7070	0.976037
3.7080	0.976061
3.7090	0.976084
3.7100	0.976107
3.7110	0.976131
3.7120	0.976154
3.7130	0.976177
3.7140	0.976200
3.7150	0.976224
3.7160	0.976247
3.7170	0.976270
3.7180	0.976293
3.7190	0.976316
3.7200	0.976339
3.7210	0.976363
3.7220	0.976386
3.7230	0.976409
3.7240	0.976432
3.7250	0.976455
3.7260	0.976478
3.7270	0.976501
3.7280	0.976524
3.7290	0.976546
3.7300	0.976569
3.7310	0.976592
3.7320	0.976615
3.7330	0.976638
3.7340	0.976661
3.7350	0.976683
3.7360	0.976706
3.7370	0.976729
3.7380	0.976752
3.7390	0.976774
3.7400	0.976797
3.7410	0.976820
3.7420	0.976842
3.7430	0.976865
3.7440	0.976888
3.7450	0.976910
3.7460	0.976933
3.7470	0.976955
3.7480	0.976978
3.7490	0.977000
3.7500	0.977023
3.7510	0.977045
3.7520	0.977067
3.7530	0.977090
3.7540	0.977112
3.7550	0.977135
3.7560	0.977157
3.7570	0.977179
3.7580	0.977202
3.7590	0.977224
3.7600	0.977246
3.7610	0.977268
3.7620	0.977290
3.7630	0.977313
3.7640	0.977335
3.7650	0.977357
3.7660	0.977379
3.7670	0.977401
3.7680	0.977423
3.7690	0.977445
3.7700	0.977467
3.7710	0.977489
3.7720	0.977511
3.7730	0.977533
3.7740	0.977555
3.7750	0.977577
3.7760	0.977599
3.7770	0.977621
3.7780	0.977643
3.7790	0.977665
3.7800	0.977687
3.7810	0.977708
3.7820	0.977730
3.7830	0.977752
3.7840	0.977774
3.7850	0.977795
3.7860	0.977817
3.7870	0.977839
3.7880	0.977860
3.7890	0.977882
3.7900	0.977904
3.7910	0.977925
3.7920	0.977947
3.7930	0.977968
3.7940	0.977990
3.7950	0.978011
3.7960	0.978033
3.7970	0.978054
3.7980	0.978076
3.7990	0.978097
3.8000	0.978119
3.8010	0.978140
3.8020	0.978161
3.8030	0.978183
3.8040	0.978204
3.8050	0.978225
3.8060	0.978247
3.8070	0.978268
3.8080	0.978289
3.8090	0.978311
3.8100	0.978332
3.8110	0.978353
3.8120	0.978374
3.8130	0.978395
3.8140	0.978416
3.8150	0.978437
3.8160	0.978459
3.8170	0.978480
3.8180	0.978501
3.8190	0.978522
3.8200	0.978543
3.8210	0.978564
3.8220	0.978585
3.8230	0.978606
3.8240	0.978627
3.8250	0.978647
3.8260	0.978668
3.8270	0.978689
3.8280	0.978710
3.8290	0.978731
3.8300	0.978752
3.8310	0.978772
3.8320	0.978793
3.8330	0.978814
3.8340	0.978835
3.8350	0.978855
3.8360	0.978876
3.8370	0.978897
3.8380	0.978917
3.8390	0.978938
3.8400	0.978959
3.8410	0.978979
3.8420	0.979000
3.8430	0.979020
3.8440	0.979041
3.8450	0.979061
3.8460	0.979082
3.8470	0.979102
3.8480	0.979123
3.8490	0.979143
3.8500	0.979164
3.8510	0.979184
3.8520	0.979204
3.8530	0.979225
3.8540	0.979245
3.8550	0.979265
3.8560	0.979286
3.8570	0.979306
3.8580	0.979326
3.8590	0.979346
3.8600	0.979367
3.8610	0.979387
3.8620	0.979407
3.8630	0.979427
3.8640	0.979447
3.8650	0.979467
3.8660	0.979488
3.8670	0.979508
3.8680	0.979528
3.8690	0.979548
3.8700	0.979568
3.8710	0.979588
3.8720	0.979608
3.8730	0.979628
3.8740	0.979648
3.8750	0.979668
3.8760	0.979688
3.8770	0.979707
3.8780	0.979727
3.8790	0.979747
3.8800	0.979767
3.8810	0.979787
3.8820	0.979807
3.8830	0.979826
3.8840	0.979846
3.8850	0.979866
3.8860	0.979886
3.8870	0.979905
3.8880	0.979925
3.8890	0.979945
3.8900	0.979964
3.8910	0.979984
3.8920	0.980004
3.8930	0.980023
3.8940	0.980043
3.8950	0.980062
3.8960	0.980082
3.8970	0.980101
3.8980	0.980121
3.8990	0.980140
3.9000	0.980160
3.9010	0.980179
3.9020	0.980199
3.9030	0.980218
3.9040	0.980237
3.9050	0.980257
3.9060	0.980276
3.9070	0.980295
3.9080	0.980315
3.9090	0.980334
3.9100	0.980353
3.9110	0.980372
3.9120	0.980392
3.9130	0.980411
3.9140	0.980430
3.9150	0.980449
3.9160	0.980468
3.9170	0.980488
3.9180	0.980507
3.9190	0.980526
3.9200	0.980545
3.9210	0.980564
3.9220	0.980583
3.9230	0.980602
3.9240	0.980621
3.9250	0.980640
3.9260	0.980659
3.9270	0.980678
3.9280	0.980697
3.9290	0.980716
3.9300	0.980735
3.9310	0.980754
3.9320	0.980773
3.9330	0.980791
3.9340	0.980810
3.9350	0.980829
3.9360	0.980848
3.9370	0.980867
3.9380	0.980885
3.9390	0.980904
3.9400	0.980923
3.9410	0.980942
3.9420	0.980960
3.9430	0.980979
3.9440	0.980998
3.9450	0.981016
3.9460	0.981035
3.9470	0.981053
3.9480	0.981072
3.9490	0.981090
3.9500	0.981109
3.9510	0.981128
3.9520	0.981146
3.9530	0.981165
3.9540	0.981183
3.9550	0.981201
3.9560	0.981220
3.9570	0.981238
3.9580	0.981257
3.9590	0.981275
3.9600	0.981293
3.9610	0.981312
3.9620	0.981330
3.9630	0.981348
3.9640	0.981367
3.9650	0.981385
3.9660	0.981403
3.9670	0.981422
3.9680	0.981440
3.9690	0.981458
3.9700	0.981476
3.9710	0.981494
3.9720	0.981513
3.9730	0.981531
3.9740	0.981549
3.9750	0.981567
3.9760	0.981585
3.9770	0.981603
3.9780	0.981621
3.9790	0.981639
3.9800	0.981657
3.9810	0.981675
3.9820	0.981693
3.9830	0.981711
3.9840	0.981729
3.9850	0.981747
3.9860	0.981765
3.9870	0.981783
3.9880	0.981801
3.9890	0.981818
3.9900	0.981836
3.9910	0.981854
3.9920	0.981872
3.9930	0.981890
3.9940	0.981908
3.9950	0.981925
3.9960	0.981943
3.9970	0.981961
3.9980	0.981978
3.9990	0.981996
4.0000	0.982014
